MicroRheology Analysis v9.2.8 
08/21/18 4:47:57 PM

Correlation Mode:	Cross
Geometry:	Transmission
Multi-Tau Duration (s):	48
Echo Duration (s):	48
Wavelength (nm):	685.0
Temperature (°C):	25.00
Cuvette Thickness (mm):	10.00
Absorption Length (mm):	Inf
Solvent:	Water
Solvent Refractive Index:	1.329
Particle Radius (nm):	300.0
Mean Count Rate (kHz):	104.2
l* (microns):	616.02



Lag Time (s)	Mean Square Displacement (micron^2)	Fit Lag Time (s)	Mean Square Displacement Fit (micron^2)	Frequency(rad/s)	G1 (Pa)	G2 (Pa)	G* (Pa)	Complex Viscosity (Pa s)	Loss Tangent (-)	Time (s)	Creep Compliance (1/Pa)

2.212500E-6	2.091359E-6	2.212530E-6	2.147739E-6	0.135197	-1.806074	14.495722	14.607801	108.048368	-8.026095	2.212500E-6	0.000479
2.412500E-6	2.273516E-6	2.420782E-6	2.237116E-6	0.147921	-1.052444	16.257413	16.291443	110.136344	-15.447299	2.412500E-6	0.000521
2.612500E-6	2.412576E-6	2.648647E-6	2.333551E-6	0.161846	-0.129716	18.085118	18.085583	111.745404	-139.420759	2.612500E-6	0.000552
2.812500E-6	2.508333E-6	2.897951E-6	2.437301E-6	0.177077	0.969488	19.966006	19.989530	112.886060	20.594387	2.812500E-6	0.000574
3.012500E-6	2.530851E-6	3.170674E-6	2.548627E-6	0.193745	2.251011	21.885313	22.000772	113.555345	9.722436	3.012500E-6	0.000579
3.212500E-6	2.559175E-6	3.469118E-6	2.667855E-6	0.211984	3.718006	23.827051	24.115388	113.760453	6.408557	3.212500E-6	0.000586
3.612500E-6	2.661480E-6	3.795629E-6	2.795252E-6	0.231934	5.371910	25.776238	26.330056	113.523736	4.798338	3.612500E-6	0.000609
4.012500E-6	2.771866E-6	4.152949E-6	2.931159E-6	0.253764	7.212406	27.717250	28.640265	112.861689	3.842996	4.012500E-6	0.000635
4.412500E-6	3.018555E-6	4.543817E-6	3.075826E-6	0.277652	9.236728	29.634194	31.040339	111.795758	3.208300	4.412500E-6	0.000691
4.812500E-6	3.166991E-6	4.971507E-6	3.229602E-6	0.303788	11.440090	31.511831	33.524188	110.353977	2.754509	4.812500E-6	0.000725
5.212500E-6	3.240618E-6	5.439409E-6	3.392773E-6	0.332380	13.816152	33.335811	36.085487	108.566876	2.412814	5.212500E-6	0.000742
5.612500E-6	3.290594E-6	5.951385E-6	3.565668E-6	0.363662	16.357361	35.092907	38.717895	106.466628	2.145389	5.612500E-6	0.000753
6.012500E-6	3.510755E-6	6.511644E-6	3.748609E-6	0.397895	19.053898	36.769755	41.413354	104.081210	1.929776	6.012500E-6	0.000804
6.412500E-6	3.672872E-6	7.124474E-6	3.941807E-6	0.435344	21.895265	38.355414	44.164923	101.448393	1.751768	6.412500E-6	0.000841
7.212500E-6	3.951332E-6	7.795150E-6	4.145643E-6	0.476322	24.869414	39.839071	46.964234	98.597555	1.601930	7.212500E-6	0.000905
8.012500E-6	4.226927E-6	8.528801E-6	4.360291E-6	0.521154	27.963914	41.212191	49.803867	95.564570	1.473763	8.012500E-6	0.000968
8.812500E-6	4.417689E-6	9.331607E-6	4.586071E-6	0.570211	31.165183	42.466732	52.675345	92.378633	1.362634	8.812500E-6	0.001011
9.612500E-6	4.545571E-6	1.020988E-5	4.823163E-6	0.623885	34.458789	43.596247	55.570144	89.071182	1.265171	9.612500E-6	0.001041
1.041250E-5	4.867919E-6	1.117092E-5	5.071819E-6	0.682599	37.831060	44.596395	58.481002	85.674011	1.178830	1.041250E-5	0.001115
1.121250E-5	5.120701E-6	1.222228E-5	5.332163E-6	0.746846	41.267835	45.463403	61.399961	82.212347	1.101667	1.121250E-5	0.001172
1.201250E-5	5.485464E-6	1.337269E-5	5.604397E-6	0.817147	44.754610	46.194901	64.319079	78.711783	1.032182	1.201250E-5	0.001256
1.281250E-5	5.781713E-6	1.463162E-5	5.888676E-6	0.894068	48.276321	46.789519	67.229921	75.195529	0.969202	1.281250E-5	0.001324
1.441250E-5	6.041437E-6	1.600862E-5	6.184938E-6	0.978207	51.820336	47.248350	70.126698	71.688986	0.911772	1.441250E-5	0.001383
1.601250E-5	6.248581E-6	1.751562E-5	6.493396E-6	1.070291	55.372324	47.571697	73.001100	68.206806	0.859124	1.601250E-5	0.001431
1.761250E-5	6.544554E-6	1.916399E-5	6.813885E-6	1.171023	58.919816	47.762516	75.847232	64.770083	0.810636	1.761250E-5	0.001498
1.921250E-5	6.784802E-6	2.096810E-5	7.146568E-6	1.281245	62.450463	47.823691	78.658539	61.392277	0.765786	1.921250E-5	0.001553
2.081250E-5	7.059522E-6	2.294165E-5	7.491188E-6	1.401841	65.952969	47.759422	81.429458	58.087501	0.724144	2.081250E-5	0.001616
2.241250E-5	7.259660E-6	2.510100E-5	7.847688E-6	1.533805	69.415460	47.574056	84.153413	54.865786	0.685352	2.241250E-5	0.001662
2.401250E-5	7.559708E-6	2.746334E-5	8.215844E-6	1.678151	72.828898	47.273653	86.826532	51.739395	0.649106	2.401250E-5	0.001731
2.561250E-5	7.979614E-6	3.004863E-5	8.595559E-6	1.836107	76.184107	46.863683	89.443966	48.713910	0.615137	2.561250E-5	0.001827
2.881250E-5	8.431706E-6	3.287700E-5	8.986429E-6	2.008945	79.472195	46.350487	92.001073	45.795720	0.583229	2.881250E-5	0.001930
3.201250E-5	8.867192E-6	3.597152E-5	9.388156E-6	2.198033	82.685848	45.741011	94.494389	42.990437	0.553190	3.201250E-5	0.002030
3.521250E-5	9.339846E-6	3.935733E-5	9.800375E-6	2.404916	85.818739	45.042201	96.920874	40.301141	0.524853	3.521250E-5	0.002138
3.841250E-5	9.709309E-6	4.306164E-5	1.022263E-5	2.631290	88.864590	44.261118	99.277198	37.729471	0.498074	3.841250E-5	0.002223
4.161250E-5	1.006960E-5	4.711433E-5	1.065445E-5	2.878941	91.818974	43.405329	101.561541	35.277396	0.472727	4.161250E-5	0.002305
4.481250E-5	1.042130E-5	5.154919E-5	1.109539E-5	3.149924	94.677973	42.482002	103.772054	32.944301	0.448700	4.481250E-5	0.002386
4.801250E-5	1.076565E-5	5.640182E-5	1.154485E-5	3.446453	97.437322	41.498457	105.906344	30.729080	0.425899	4.801250E-5	0.002465
5.121250E-5	1.112101E-5	6.171031E-5	1.200211E-5	3.770815	100.095422	40.462387	107.964338	28.631564	0.404238	5.121250E-5	0.002546
5.761250E-5	1.163108E-5	6.751889E-5	1.246661E-5	4.125770	102.649939	39.380619	109.944728	26.648291	0.383640	5.761250E-5	0.002663
6.401250E-5	1.217651E-5	7.387381E-5	1.293760E-5	4.514107	105.099732	38.260477	111.847297	24.777283	0.364040	6.401250E-5	0.002788
7.041250E-5	1.272710E-5	8.082764E-5	1.341443E-5	4.938975	107.444543	37.108813	113.672310	23.015367	0.345376	7.041250E-5	0.002914
7.681250E-5	1.318131E-5	8.843517E-5	1.389623E-5	5.403856	109.684451	35.932224	115.420118	21.358842	0.327596	7.681250E-5	0.003018
8.321250E-5	1.359580E-5	9.675882E-5	1.438225E-5	5.912513	111.819911	34.737201	117.091270	19.803975	0.310653	8.321250E-5	0.003113
8.961250E-5	1.392225E-5	0.000106	1.487170E-5	6.469015	113.852241	33.530001	118.686957	18.346990	0.294505	8.961250E-5	0.003188
9.601250E-5	1.428892E-5	0.000116	1.536370E-5	7.077904	115.783131	32.316479	120.208520	16.983633	0.279112	9.601250E-5	0.003272
0.000102	1.472952E-5	0.000127	1.585752E-5	7.744117	117.614447	31.102303	121.657352	15.709649	0.264443	0.000102	0.003372
0.000115	1.528792E-5	0.000139	1.635211E-5	8.472960	119.348931	29.892863	123.035566	14.520966	0.250466	0.000115	0.003500
0.000128	1.586024E-5	0.000152	1.684676E-5	9.270434	120.989528	28.693066	124.345317	13.413107	0.237153	0.000128	0.003631
0.000141	1.643566E-5	0.000166	1.734049E-5	10.143048	122.539205	27.507664	125.588727	12.381754	0.224481	0.000141	0.003763
0.000154	1.692844E-5	0.000182	1.783250E-5	11.097778	124.001266	26.341223	126.768190	11.422845	0.212427	0.000154	0.003876
0.000166	1.738071E-5	0.000199	1.832187E-5	12.142257	125.379791	25.197849	127.886761	10.532371	0.200972	0.000166	0.003979
0.000179	1.776417E-5	0.000217	1.880795E-5	13.285218	126.678565	24.081263	128.947145	9.706061	0.190097	0.000179	0.004067
0.000192	1.818896E-5	0.000238	1.928968E-5	14.535853	127.901130	22.995267	129.951843	8.940091	0.179789	0.000192	0.004164
0.000205	1.862748E-5	0.000260	1.976641E-5	15.903754	129.052616	21.943148	130.904849	8.231066	0.170033	0.000205	0.004265
0.000230	1.912912E-5	0.000285	2.023739E-5	17.400932	130.136726	20.927752	131.808718	7.574808	0.160814	0.000230	0.004380
0.000256	1.969247E-5	0.000312	2.070182E-5	19.038743	131.158131	19.952139	132.667039	6.968267	0.152123	0.000256	0.004509
0.000282	2.024301E-5	0.000341	2.115900E-5	20.830699	132.121320	19.018791	133.483173	6.408003	0.143949	0.000282	0.004635
0.000307	2.070357E-5	0.000373	2.160826E-5	22.791196	133.031236	18.129974	134.260961	5.890913	0.136284	0.000307	0.004740
0.000333	2.110567E-5	0.000408	2.204903E-5	24.936800	133.892063	17.287839	135.003533	5.413827	0.129118	0.000333	0.004832
0.000358	2.143178E-5	0.000447	2.248077E-5	27.283975	134.708622	16.494499	135.714706	4.974154	0.122446	0.000358	0.004907
0.000384	2.179132E-5	0.000489	2.290289E-5	29.852056	135.485425	15.751708	136.398009	4.569133	0.116261	0.000384	0.004989
0.000410	2.221443E-5	0.000535	2.331492E-5	32.661355	136.227447	15.061044	137.057479	4.196319	0.110558	0.000410	0.005086
0.000461	2.265779E-5	0.000585	2.371647E-5	35.735667	136.939160	14.423910	137.696705	3.853201	0.105331	0.000461	0.005188
0.000512	2.310274E-5	0.000640	2.410712E-5	39.099463	137.625050	13.841774	138.319373	3.537628	0.100576	0.000512	0.005290
0.000563	2.352466E-5	0.000700	2.448673E-5	42.779525	138.289844	13.315880	138.929455	3.247569	0.096290	0.000563	0.005386
0.000614	2.387976E-5	0.000766	2.485477E-5	46.806531	138.937757	12.847402	139.530484	2.981005	0.092469	0.000614	0.005467
0.000666	2.424263E-5	0.000838	2.521133E-5	51.211548	139.573499	12.437454	140.126557	2.736230	0.089110	0.000666	0.005550
0.000717	2.456828E-5	0.000917	2.555603E-5	56.031858	140.201367	12.086999	140.721422	2.511454	0.086212	0.000717	0.005625
0.000768	2.487915E-5	0.001003	2.588892E-5	61.306170	140.825588	11.797070	141.318849	2.305133	0.083771	0.000768	0.005696
0.000819	2.517522E-5	0.001098	2.620989E-5	67.076622	141.450394	11.568648	141.922681	2.115829	0.081786	0.000819	0.005764
0.000922	2.550429E-5	0.001201	2.651899E-5	73.389884	142.080043	11.402668	142.536871	1.942187	0.080255	0.000922	0.005839
0.001024	2.585653E-5	0.001314	2.681635E-5	80.298148	142.718505	11.300084	143.165162	1.782920	0.079177	0.001024	0.005920
0.001126	2.620895E-5	0.001438	2.710197E-5	87.856248	143.369845	11.261885	143.811483	1.636895	0.078551	0.001126	0.006001
0.001229	2.651385E-5	0.001573	2.737611E-5	96.126122	144.037830	11.289066	144.479547	1.503021	0.078376	0.001229	0.006071
0.001331	2.677607E-5	0.001721	2.763894E-5	105.172496	144.726643	11.382710	145.173577	1.380338	0.078650	0.001331	0.006131
0.001434	2.696280E-5	0.001883	2.789082E-5	115.073410	145.439724	11.543914	145.897139	1.267861	0.079372	0.001434	0.006173
0.001536	2.713902E-5	0.002060	2.813192E-5	125.903940	146.180981	11.773887	146.654368	1.164812	0.080543	0.001536	0.006214
0.001638	2.736206E-5	0.002254	2.836271E-5	137.754926	146.953944	12.073913	147.449114	1.070373	0.082161	0.001638	0.006265
0.001843	2.762087E-5	0.002467	2.858354E-5	150.720343	147.762350	12.445414	148.285536	0.983846	0.084226	0.001843	0.006324
0.002048	2.792656E-5	0.002699	2.879480E-5	164.908209	148.609538	12.889893	149.167503	0.904549	0.086737	0.002048	0.006394
0.002253	2.822385E-5	0.002953	2.899701E-5	180.429920	149.499001	13.408957	150.099138	0.831897	0.089693	0.002253	0.006462
0.002458	2.845458E-5	0.003231	2.919068E-5	197.411499	150.434183	14.004414	151.084636	0.765328	0.093093	0.002458	0.006515
0.002662	2.864084E-5	0.003535	2.937628E-5	215.990952	151.418696	14.678340	152.128483	0.704328	0.096939	0.002662	0.006557
0.002867	2.880622E-5	0.003867	2.955441E-5	236.324735	152.455404	15.432760	153.234527	0.648407	0.101228	0.002867	0.006595
0.003072	2.896604E-5	0.004231	2.972563E-5	258.566221	153.547900	16.269955	154.407477	0.597168	0.105960	0.003072	0.006632
0.003277	2.912242E-5	0.004630	2.989062E-5	282.902642	154.699413	17.192552	155.651830	0.550196	0.111135	0.003277	0.006668
0.003686	2.931455E-5	0.005066	3.004992E-5	309.530122	155.913303	18.203355	156.972355	0.507131	0.116753	0.003686	0.006712
0.004096	2.951047E-5	0.005542	3.020424E-5	338.667777	157.192539	19.305266	158.373570	0.467637	0.122813	0.004096	0.006757
0.004506	2.966956E-5	0.006064	3.035426E-5	370.544278	158.540381	20.501419	159.860442	0.431421	0.129314	0.004506	0.006793
0.004915	2.976163E-5	0.006635	3.050069E-5	405.418311	159.960337	21.795500	161.438388	0.398202	0.136256	0.004915	0.006814
0.005325	2.986074E-5	0.007259	3.064421E-5	443.581247	161.455408	23.191314	163.112494	0.367717	0.143639	0.005325	0.006837
0.005734	2.994776E-5	0.007943	3.078558E-5	485.335868	163.028583	24.692694	164.887986	0.339740	0.151462	0.005734	0.006857
0.006144	3.010669E-5	0.008690	3.092553E-5	531.011599	164.683797	26.304343	166.771314	0.314063	0.159726	0.006144	0.006893
0.006554	3.030253E-5	0.009508	3.106487E-5	581.001235	166.423523	28.030847	168.767643	0.290477	0.168431	0.006554	0.006938
0.007373	3.053272E-5	0.010403	3.120430E-5	635.682614	168.251611	29.877247	170.883746	0.268819	0.177575	0.007373	0.006991
0.008192	3.077356E-5	0.011382	3.134471E-5	695.516120	170.171155	31.849114	173.125931	0.248917	0.187159	0.008192	0.007046
0.009011	3.102418E-5	0.012454	3.148686E-5	760.977287	172.186010	33.952505	175.501552	0.230627	0.197185	0.009011	0.007103
0.009830	3.120273E-5	0.013626	3.163160E-5	832.613619	174.298944	36.193491	178.017108	0.213805	0.207652	0.009830	0.007144
0.010650	3.135853E-5	0.014908	3.177976E-5	910.978778	176.513867	38.578723	180.680555	0.198337	0.218559	0.010650	0.007180
0.011469	3.147077E-5	0.016312	3.193223E-5	996.720154	178.834503	41.115675	183.500077	0.184104	0.229909	0.011469	0.007205
0.012288	3.158585E-5	0.017847	3.208989E-5	1090.537805	181.264189	43.811880	186.483745	0.171002	0.241702	0.012288	0.007232
0.013107	3.175428E-5	0.019527	3.225363E-5	1193.175616	183.807559	46.675996	189.641417	0.158938	0.253939	0.013107	0.007270
0.014746	3.193557E-5	0.021365	3.242437E-5	1305.502104	186.466995	49.716158	192.980923	0.147821	0.266622	0.014746	0.007312
0.016384	3.212900E-5	0.023376	3.260312E-5	1428.357834	189.248505	52.942416	196.514366	0.137581	0.279751	0.016384	0.007356
0.018022	3.232838E-5	0.025576	3.279081E-5	1562.826502	192.154310	56.364322	200.250382	0.128133	0.293328	0.018022	0.007402
0.019661	3.249545E-5	0.027983	3.298848E-5	1709.908259	195.189998	59.992535	204.201468	0.119422	0.307355	0.019661	0.007440
0.021299	3.264914E-5	0.030617	3.319716E-5	1870.847940	198.359729	63.838732	208.379380	0.111382	0.321833	0.021299	0.007475
0.022938	3.279878E-5	0.033499	3.341789E-5	2046.936600	201.668404	67.915051	212.797085	0.103959	0.336766	0.022938	0.007509
0.024576	3.295875E-5	0.036652	3.365187E-5	2239.610874	205.120860	72.234420	217.468109	0.097101	0.352155	0.024576	0.007546
0.026214	3.322160E-5	0.040101	3.390024E-5	2450.429511	208.721730	76.810113	222.406282	0.090762	0.368002	0.026214	0.007606
0.029491	3.347092E-5	0.043877	3.416426E-5	2681.068301	212.476695	81.656639	227.627223	0.084902	0.384309	0.029491	0.007663
0.032768	3.375606E-5	0.048006	3.444510E-5	2933.405331	216.391905	86.789956	233.147921	0.079480	0.401078	0.032768	0.007729
0.036045	3.403966E-5	0.052524	3.474417E-5	3209.514867	220.473091	92.226530	238.985599	0.074462	0.418312	0.036045	0.007794
0.039322	3.429507E-5	0.057468	3.506287E-5	3511.619425	224.726846	97.983906	245.159134	0.069814	0.436013	0.039322	0.007852
0.042598	3.454894E-5	0.062878	3.540274E-5	3842.179939	229.159072	104.079966	251.687345	0.065506	0.454182	0.042598	0.007910
0.045875	3.477079E-5	0.068795	3.576516E-5	4203.810391	233.777490	110.534360	258.591879	0.061514	0.472819	0.045875	0.007961
0.049152	3.496527E-5	0.075272	3.615205E-5	4599.461287	238.591063	117.369260	265.897045	0.057810	0.491926	0.049152	0.008006
0.052429	3.521807E-5	0.082357	3.656502E-5	5032.439424	243.605517	124.605119	273.623982	0.054372	0.511504	0.052429	0.008063
0.058982	3.549614E-5	0.090108	3.700592E-5	5506.057806	248.832103	132.266315	281.800982	0.051180	0.531548	0.058982	0.008127
0.065536	3.583119E-5	0.098590	3.747686E-5	6024.308985	254.279321	140.377622	290.454557	0.048214	0.552061	0.065536	0.008204
0.072090	3.619847E-5	0.107870	3.797997E-5	6591.318308	259.958771	148.966061	299.615504	0.045456	0.573037	0.072090	0.008288
0.078643	3.651028E-5	0.118023	3.851750E-5	7211.771907	265.880022	158.058267	309.313113	0.042890	0.594472	0.078643	0.008359
0.085197	3.681980E-5	0.129130	3.909194E-5	7890.541256	272.057872	167.685332	319.583880	0.040502	0.616359	0.085197	0.008430
0.091750	3.709176E-5	0.141285	3.970605E-5	8633.336783	278.502686	177.876286	330.459860	0.038277	0.638688	0.091750	0.008492
0.098304	3.737626E-5	0.154583	4.036266E-5	9445.889176	285.231689	188.665110	341.981929	0.036204	0.661445	0.098304	0.008558
0.104858	3.771616E-5	0.169133	4.106490E-5	10334.975069	292.260097	200.086365	354.189946	0.034271	0.684617	0.104858	0.008635
0.117965	3.814291E-5	0.185053	4.181620E-5	11307.718090	299.606066	212.176533	367.127602	0.032467	0.708185	0.117965	0.008733
0.131072	3.864878E-5	0.202471	4.262019E-5	12372.006131	307.290444	224.975374	380.842928	0.030783	0.732126	0.131072	0.008849
0.144179	3.914031E-5	0.221528	4.348085E-5	13536.597310	315.332881	238.521414	395.382461	0.029208	0.756411	0.144179	0.008961
0.157286	3.883851E-5	0.242379	4.440263E-5	14810.670691	323.759575	252.858358	410.801183	0.027737	0.781007	0.157286	0.008892
0.170394	4.056314E-5	0.265195	4.539036E-5	16204.747382	332.595727	268.029468	427.153033	0.026360	0.805872	0.170394	0.009287
0.183501	4.324492E-5	0.290153	4.644900E-5	17729.924817	341.874223	284.084071	444.501680	0.025071	0.830961	0.183501	0.009901
0.399815	4.695590E-5	0.317468	4.758473E-5	19398.947194	351.625292	301.068214	462.906487	0.023862	0.856219	0.399815	0.010751
0.599722	5.670381E-5	0.347350	4.880345E-5	21224.963391	361.885180	319.029881	482.432325	0.022729	0.881578	0.599722	0.012983
0.799629	6.485647E-5	0.380042	5.011209E-5	23222.524094	372.698295	338.024241	503.154456	0.021667	0.906965	0.799629	0.014849
0.999536	7.250539E-5	0.415815	5.151859E-5	25408.229969	384.110244	358.105469	525.147795	0.020668	0.932299	0.999536	0.016601
1.199444	7.900593E-5	0.454952	5.303109E-5	27799.770577	396.172065	379.327795	548.490548	0.019730	0.957482	1.199444	0.018089
1.399351	8.656164E-5	0.497774	5.465903E-5	30416.400112	408.942055	401.747821	573.266880	0.018847	0.982408	1.399351	0.019819
1.599258	9.385144E-5	0.544630	5.641293E-5	33279.383677	422.486066	425.424317	599.566781	0.018016	1.006955	1.599258	0.021488
1.799165	0.000101	0.595894	5.830394E-5	36412.179968	436.870416	450.407183	627.473020	0.017233	1.030986	1.799165	0.023095
1.999073	0.000109	0.651973	6.034464E-5	39839.048846	452.182121	476.759487	657.090769	0.016494	1.054353	1.999073	0.024867
2.198980	0.000115	0.713348	6.255011E-5	43588.834576	468.508150	504.534686	688.516620	0.015796	1.076896	2.198980	0.026296
2.398887	0.000123	0.780491	6.493543E-5	47691.489432	485.953425	533.791370	721.861453	0.015136	1.098441	2.398887	0.028084
2.598794	0.000131	0.853954	6.751861E-5	52181.212561	504.618105	564.564930	757.213967	0.014511	1.118796	2.598794	0.029901
2.798702	0.000137	0.934326	7.031929E-5	57091.892570	524.640939	596.916621	794.705963	0.013920	1.137762	2.798702	0.031276
2.998609	0.000143	1.022278	7.336058E-5	62466.357797	546.145502	630.868822	834.428175	0.013358	1.155130	2.998609	0.032725
3.198516	0.000152	1.118483	7.666622E-5	68345.153437	569.299282	666.467751	876.516363	0.012825	1.170681	3.198516	0.034781
3.398423	0.000158	1.223770	8.026629E-5	74779.296669	594.256689	703.715260	921.062528	0.012317	1.184194	3.398423	0.036127
3.598331	0.000164	1.338964	8.419183E-5	81817.765928	621.206073	742.616721	968.182100	0.011833	1.195443	3.598331	0.037596
3.798238	0.000171	1.464989	8.847881E-5	89518.106752	650.355638	783.165076	1017.993120	0.011372	1.204210	3.798238	0.039229
3.998145	0.000176	1.602860	9.316823E-5	97944.302310	681.918938	825.314311	1070.587292	0.010931	1.210282	3.998145	0.040371
4.198052	0.000183	1.753736	9.830826E-5	107162.677658	716.142267	869.008385	1126.070744	0.010508	1.213458	4.198052	0.041945
4.397960	0.000195	1.918818	0.000104	117249.778426	753.275085	914.140517	1184.515192	0.010102	1.213555	4.397960	0.044577
4.597867	0.000202	2.099418	0.000110	128284.899032	793.605609	960.590372	1246.011126	0.009713	1.210413	4.597867	0.046154
4.797774	0.000213	2.297035	0.000117	140361.240980	837.407516	1008.154981	1310.583005	0.009337	1.203900	4.797774	0.048770
4.997681	0.000217	2.513228	0.000125	153571.055761	885.006967	1056.623977	1378.292988	0.008975	1.193916	4.997681	0.049643
5.197589	0.000226	2.749804	0.000133	168028.125182	936.700545	1105.677070	1449.113416	0.008624	1.180395	5.197589	0.051673
5.397496	0.000234	3.008602	0.000142	183843.489606	992.809238	1154.949228	1523.016055	0.008284	1.163314	5.397496	0.053466
5.597403	0.000244	3.291772	0.000153	201146.268351	1053.656165	1203.995812	1599.936633	0.007954	1.142684	5.597403	0.055970
5.797311	0.000253	3.601628	0.000164	220079.301865	1119.534751	1252.262076	1679.737588	0.007632	1.118556	5.797311	0.057962
5.997218	0.000261	3.940665	0.000177	240792.748713	1190.738974	1299.117244	1762.261308	0.007319	1.091018	5.997218	0.059644
6.197125	0.000277	4.311565	0.000191	263460.926213	1267.482129	1343.778206	1847.227873	0.007011	1.060195	6.197125	0.063368
6.397032	0.000279	4.717339	0.000207	288257.688852	1349.962010	1385.390764	1934.348727	0.006710	1.026244	6.397032	0.063921
6.596940	0.000291	5.161426	0.000226	315390.374857	1438.279620	1422.954133	2023.226811	0.006415	0.989345	6.596940	0.066559
6.796847	0.000297	5.647259	0.000246	345071.392372	1532.500786	1455.402990	2113.470256	0.006125	0.949692	6.796847	0.067968
6.996754	0.000307	6.178701	0.000269	377551.267206	1632.596494	1481.563980	2204.632200	0.005839	0.907489	6.996754	0.070207
7.196661	0.000309	6.760380	0.000296	413089.599235	1738.480553	1500.231000	2296.303048	0.005559	0.862955	7.196661	0.070682
