MicroRheology Analysis v9.2.8 
08/21/18 4:22:05 PM

Correlation Mode:	Cross
Geometry:	Transmission
Multi-Tau Duration (s):	48
Echo Duration (s):	48
Wavelength (nm):	685.0
Temperature (°C):	25.00
Cuvette Thickness (mm):	10.00
Absorption Length (mm):	Inf
Solvent:	Water
Solvent Refractive Index:	1.329
Particle Radius (nm):	300.0
Mean Count Rate (kHz):	126.9
l* (microns):	616.14



Lag Time (s)	Mean Square Displacement (micron^2)	Fit Lag Time (s)	Mean Square Displacement Fit (micron^2)	Frequency(rad/s)	G1 (Pa)	G2 (Pa)	G* (Pa)	Complex Viscosity (Pa s)	Loss Tangent (-)	Time (s)	Creep Compliance (1/Pa)

7.212500E-6	2.189975E-6	7.212602E-6	1.995543E-6	0.178653	-2.324644	17.862827	18.013455	100.829473	-7.684114	7.212500E-6	0.000501
8.012500E-6	2.213754E-6	7.924814E-6	2.135249E-6	0.196297	-2.018286	19.985114	20.086769	102.328337	-9.902025	8.012500E-6	0.000507
8.812500E-6	2.279380E-6	8.707448E-6	2.280579E-6	0.215683	-1.577569	22.304238	22.359959	103.670618	-14.138356	8.812500E-6	0.000522
9.612500E-6	2.386928E-6	9.567445E-6	2.431546E-6	0.236983	-0.978897	24.825099	24.844391	104.836385	-25.360280	9.612500E-6	0.000547
1.041250E-5	2.574477E-6	1.051235E-5	2.588143E-6	0.260388	-0.197180	27.549054	27.549759	105.802640	-139.715467	1.041250E-5	0.000589
1.121250E-5	2.734394E-6	1.155054E-5	2.750374E-6	0.286100	0.793985	30.476134	30.486475	106.558790	38.383763	1.121250E-5	0.000626
1.201250E-5	2.839032E-6	1.269120E-5	2.918230E-6	0.314356	2.021971	33.601544	33.662325	107.083510	16.618215	1.201250E-5	0.000650
1.281250E-5	2.923499E-6	1.394453E-5	3.091713E-6	0.345401	3.514330	36.917334	37.084230	107.365828	10.504801	1.281250E-5	0.000669
1.441250E-5	3.065640E-6	1.532160E-5	3.270796E-6	0.379510	5.298773	40.412227	40.758129	107.396670	7.626714	1.441250E-5	0.000702
1.601250E-5	3.182692E-6	1.683474E-5	3.455463E-6	0.416994	7.401821	44.069074	44.686354	107.162967	5.953816	1.601250E-5	0.000729
1.761250E-5	3.365037E-6	1.849745E-5	3.645684E-6	0.458174	9.848868	47.868626	48.871316	106.665433	4.860317	1.761250E-5	0.000770
1.921250E-5	3.547488E-6	2.032402E-5	3.841357E-6	0.503426	12.662621	51.784918	53.310597	105.895499	4.089589	1.921250E-5	0.000812
2.081250E-5	3.746553E-6	2.233131E-5	4.042494E-6	0.553136	15.864013	55.791666	58.003250	104.862623	3.516870	2.081250E-5	0.000858
2.241250E-5	3.918965E-6	2.453672E-5	4.248981E-6	0.607772	19.469064	59.854093	62.940900	103.560125	3.074318	2.241250E-5	0.000897
2.401250E-5	4.120193E-6	2.695989E-5	4.460742E-6	0.667787	23.490430	63.938224	68.116788	102.003721	2.721884	2.401250E-5	0.000943
2.561250E-5	4.375433E-6	2.962251E-5	4.677694E-6	0.733737	27.935724	68.004738	73.519038	100.198056	2.434329	2.561250E-5	0.001002
2.881250E-5	4.595221E-6	3.254812E-5	4.899719E-6	0.806195	32.807603	72.013752	79.134817	98.158372	2.195032	2.881250E-5	0.001052
3.201250E-5	4.844775E-6	3.576210E-5	5.126650E-6	0.885817	38.102374	75.922340	84.946999	95.896763	1.992588	3.201250E-5	0.001109
3.521250E-5	5.058531E-6	3.929428E-5	5.358437E-6	0.973296	43.811266	79.688714	90.937991	93.433059	1.818909	3.521250E-5	0.001158
3.841250E-5	5.221943E-6	4.317467E-5	5.594832E-6	1.069424	49.918411	83.269371	97.085714	90.783170	1.668109	3.841250E-5	0.001196
4.161250E-5	5.396966E-6	4.743831E-5	5.835703E-6	1.175035	56.403152	86.624054	103.368478	87.970557	1.535802	4.161250E-5	0.001236
4.481250E-5	5.604429E-6	5.212307E-5	6.080857E-6	1.291087	63.238291	89.712780	109.760941	85.014368	1.418647	4.481250E-5	0.001283
4.801250E-5	5.853211E-6	5.727125E-5	6.330119E-6	1.418597	70.390525	92.498782	116.236185	81.937432	1.314080	4.801250E-5	0.001340
5.121250E-5	6.143102E-6	6.292689E-5	6.583182E-6	1.558676	77.824311	94.950853	122.769247	78.765097	1.220067	5.121250E-5	0.001406
5.761250E-5	6.463688E-6	6.914136E-5	6.839855E-6	1.712616	85.497139	97.038990	129.330299	75.516215	1.134997	5.761250E-5	0.001480
6.401250E-5	6.772164E-6	7.596987E-5	7.099874E-6	1.881739	93.365433	98.741182	135.893065	72.216760	1.057578	6.401250E-5	0.001551
7.041250E-5	7.057795E-6	8.347206E-5	7.362918E-6	2.067598	101.380435	100.037843	142.427394	68.885445	0.986757	7.041250E-5	0.001616
7.681250E-5	7.305430E-6	9.171609E-5	7.628743E-6	2.271790	109.492574	100.917220	148.905706	65.545536	0.921681	7.681250E-5	0.001673
8.321250E-5	7.544539E-6	0.000101	7.896985E-6	2.496131	117.653116	101.373199	155.302225	62.217181	0.861628	8.321250E-5	0.001727
8.961250E-5	7.739946E-6	0.000111	8.167332E-6	2.742657	125.811359	101.404245	161.589972	58.917305	0.806002	8.961250E-5	0.001772
9.601250E-5	7.962728E-6	0.000122	8.439411E-6	3.013521	133.917911	101.015690	167.744379	55.663921	0.754311	9.601250E-5	0.001823
0.000102	8.211118E-6	0.000134	8.712845E-6	3.311118	141.926652	100.218349	173.743754	52.472831	0.706128	0.000102	0.001880
0.000115	8.493892E-6	0.000147	8.987281E-6	3.638145	149.791562	99.027085	179.565797	49.356422	0.661099	0.000115	0.001945
0.000128	8.780213E-6	0.000161	9.262270E-6	3.997420	157.471521	97.462893	185.192590	46.328028	0.618924	0.000128	0.002010
0.000141	9.085008E-6	0.000177	9.537461E-6	4.392160	164.930667	95.550051	190.609384	43.397639	0.579335	0.000141	0.002080
0.000154	9.346043E-6	0.000195	9.812415E-6	4.825976	172.133773	93.315511	195.800461	40.572198	0.542110	0.000154	0.002140
0.000166	9.576864E-6	0.000214	1.008669E-5	5.302575	179.052477	90.790849	200.755493	37.860002	0.507063	0.000166	0.002193
0.000179	9.785921E-6	0.000235	1.035988E-5	5.826240	185.662476	88.008571	205.465480	35.265536	0.474025	0.000179	0.002241
0.000192	1.001386E-5	0.000258	1.063150E-5	6.401569	191.946450	85.003133	209.926111	32.792916	0.442848	0.000192	0.002293
0.000205	1.024791E-5	0.000284	1.090113E-5	7.033864	197.888229	81.809038	214.131898	30.442998	0.413410	0.000205	0.002346
0.000230	1.050858E-5	0.000312	1.116834E-5	7.728492	203.478767	78.462719	218.082569	28.217997	0.385606	0.000230	0.002406
0.000256	1.079349E-5	0.000343	1.143264E-5	8.491690	208.714023	74.998921	221.780029	26.117302	0.359338	0.000256	0.002471
0.000282	1.106255E-5	0.000377	1.169361E-5	9.330343	213.593231	71.451732	225.227482	24.139249	0.334522	0.000282	0.002533
0.000307	1.127966E-5	0.000414	1.195087E-5	10.251870	218.119157	67.854623	228.429894	22.281779	0.311090	0.000307	0.002583
0.000333	1.147131E-5	0.000455	1.220392E-5	11.264322	222.299014	64.239493	231.394823	20.542277	0.288978	0.000333	0.002626
0.000358	1.164134E-5	0.000500	1.245240E-5	12.376716	226.143128	60.635981	234.131238	18.917072	0.268131	0.000358	0.002665
0.000384	1.179784E-5	0.000549	1.269591E-5	13.598921	229.665314	57.071493	236.650189	17.402129	0.248499	0.000384	0.002701
0.000410	1.198106E-5	0.000603	1.293412E-5	14.942056	232.879768	53.571489	238.962111	15.992586	0.230039	0.000410	0.002743
0.000461	1.220391E-5	0.000663	1.316660E-5	16.417565	235.804612	50.159485	241.080461	14.684301	0.212716	0.000461	0.002794
0.000512	1.241894E-5	0.000728	1.339304E-5	18.038870	238.459204	46.855551	243.019001	13.471964	0.196493	0.000512	0.002843
0.000563	1.263587E-5	0.000800	1.361317E-5	19.820625	240.862275	43.678445	244.790609	12.350297	0.181342	0.000563	0.002893
0.000614	1.281630E-5	0.000879	1.382669E-5	21.777753	243.036019	40.644431	246.411193	11.314813	0.167236	0.000614	0.002934
0.000666	1.297866E-5	0.000966	1.403335E-5	23.928537	245.001431	37.766709	247.895190	10.359814	0.154149	0.000666	0.002972
0.000717	1.311259E-5	0.001061	1.423294E-5	26.291735	246.780285	35.057196	249.257931	9.480467	0.142058	0.000717	0.003002
0.000768	1.326079E-5	0.001166	1.442530E-5	28.888532	248.393809	32.525696	250.514282	8.671755	0.130944	0.000768	0.003036
0.000819	1.340075E-5	0.001281	1.461029E-5	31.741538	249.863231	30.180355	251.679335	7.929021	0.120788	0.000819	0.003068
0.000922	1.356017E-5	0.001408	1.478778E-5	34.875836	251.210097	28.027038	252.768724	7.247675	0.111568	0.000922	0.003105
0.001024	1.372439E-5	0.001547	1.495770E-5	38.320555	252.453835	26.070487	253.796393	6.622983	0.103268	0.001024	0.003142
0.001126	1.389778E-5	0.001700	1.512006E-5	42.104655	253.614327	24.314402	254.777191	6.051046	0.095872	0.001126	0.003182
0.001229	1.403996E-5	0.001868	1.527487E-5	46.262555	254.710400	22.760722	255.725318	5.527695	0.089359	0.001229	0.003215
0.001331	1.416678E-5	0.002052	1.542218E-5	50.831838	255.759326	21.410904	256.653969	5.049079	0.083715	0.001331	0.003244
0.001434	1.426796E-5	0.002255	1.556207E-5	55.851387	256.778343	20.265482	257.576798	4.611825	0.078922	0.001434	0.003267
0.001536	1.437502E-5	0.002478	1.569471E-5	61.367355	257.783158	19.324115	258.506437	4.212442	0.074963	0.001536	0.003291
0.001638	1.449776E-5	0.002722	1.582029E-5	67.428217	258.788592	18.586169	259.455162	3.847872	0.071820	0.001638	0.003319
0.001843	1.466674E-5	0.002991	1.593900E-5	74.087361	259.808669	18.050498	260.434953	3.515241	0.069476	0.001843	0.003358
0.002048	1.485514E-5	0.003286	1.605115E-5	81.404449	260.856242	17.715659	261.457116	3.211828	0.067913	0.002048	0.003401
0.002253	1.505451E-5	0.003611	1.615704E-5	89.443351	261.943582	17.580028	262.532851	2.935186	0.067114	0.002253	0.003447
0.002458	1.524819E-5	0.003968	1.625699E-5	98.276639	263.081939	17.641884	263.672795	2.682965	0.067059	0.002458	0.003491
0.002662	1.543361E-5	0.004359	1.635143E-5	107.982795	264.281649	17.899520	264.887114	2.453049	0.067729	0.002662	0.003534
0.002867	1.558486E-5	0.004790	1.644077E-5	118.646901	265.552440	18.351274	266.185776	2.243512	0.069106	0.002867	0.003568
0.003072	1.574725E-5	0.005263	1.652546E-5	130.363670	266.903391	18.995643	267.578501	2.052554	0.071170	0.003072	0.003605
0.003277	1.591533E-5	0.005783	1.660603E-5	143.237691	268.342846	19.831315	269.074644	1.878518	0.073903	0.003277	0.003644
0.003686	1.608836E-5	0.006354	1.668301E-5	157.382583	269.878819	20.857296	270.683586	1.719908	0.077284	0.003686	0.003684
0.004096	1.628437E-5	0.006981	1.675695E-5	172.926074	271.518582	22.072894	272.414304	1.575322	0.081294	0.004096	0.003728
0.004506	1.646229E-5	0.007671	1.682849E-5	190.005593	273.268681	23.477495	274.275345	1.443512	0.085914	0.004506	0.003769
0.004915	1.659868E-5	0.008428	1.689824E-5	208.768027	275.136098	25.071116	276.276009	1.323364	0.091123	0.004915	0.003800
0.005325	1.673592E-5	0.009261	1.696690E-5	229.385872	277.126997	26.854338	278.425085	1.213785	0.096903	0.005325	0.003832
0.005734	1.683986E-5	0.010175	1.703516E-5	252.041813	279.246822	28.827638	280.730868	1.113827	0.103234	0.005734	0.003856
0.006144	1.691196E-5	0.011180	1.710374E-5	276.929521	281.502208	30.992556	283.203163	1.022654	0.110097	0.006144	0.003872
0.006554	1.697923E-5	0.012284	1.717342E-5	304.282785	283.897969	33.350851	285.850198	0.939423	0.117475	0.006554	0.003887
0.007373	1.706076E-5	0.013498	1.724499E-5	334.332870	286.439861	35.904515	288.681361	0.863455	0.125347	0.007373	0.003906
0.008192	1.718579E-5	0.014831	1.731928E-5	367.349741	289.133570	38.656650	291.706287	0.794083	0.133698	0.008192	0.003935
0.009011	1.733653E-5	0.016295	1.739716E-5	403.629817	291.984357	41.610638	294.934416	0.730705	0.142510	0.009011	0.003969
0.009830	1.748870E-5	0.017905	1.747951E-5	443.491701	294.997653	44.770292	298.375592	0.672787	0.151765	0.009830	0.004004
0.010650	1.762934E-5	0.019673	1.756725E-5	487.287107	298.179626	48.140558	302.040730	0.619841	0.161448	0.010650	0.004036
0.011469	1.774313E-5	0.021616	1.766138E-5	535.413893	301.535555	51.726720	305.940100	0.571409	0.171544	0.011469	0.004062
0.012288	1.778929E-5	0.023750	1.776288E-5	588.291248	305.071420	55.534542	310.084919	0.527094	0.182038	0.012288	0.004073
0.013107	1.772012E-5	0.026096	1.787280E-5	646.388398	308.793270	59.570694	314.486805	0.486529	0.192914	0.013107	0.004057
0.014746	1.752872E-5	0.028673	1.799228E-5	710.218058	312.708183	63.843088	319.158812	0.449381	0.204162	0.014746	0.004013
0.016384	1.735871E-5	0.031504	1.812240E-5	780.359051	316.822610	68.360268	324.113703	0.415339	0.215768	0.016384	0.003974
0.018022	1.734806E-5	0.034616	1.826443E-5	857.430123	321.143305	73.131165	329.364828	0.384130	0.227721	0.018022	0.003972
0.019661	1.751229E-5	0.038035	1.841963E-5	942.109268	325.677610	78.165768	334.926549	0.355507	0.240010	0.019661	0.004010
0.021299	1.775577E-5	0.041791	1.858933E-5	1035.145761	330.433696	83.475496	340.814591	0.329243	0.252624	0.021299	0.004065
0.022938	1.796282E-5	0.045918	1.877494E-5	1137.373150	335.419748	89.072798	347.045199	0.305129	0.265556	0.022938	0.004113
0.024576	1.823577E-5	0.050452	1.897794E-5	1249.699169	340.644504	94.971163	353.635688	0.282977	0.278798	0.024576	0.004175
0.026214	1.848096E-5	0.055436	1.920003E-5	1373.123340	346.116237	101.184678	360.603367	0.262615	0.292343	0.026214	0.004231
0.029491	1.862262E-5	0.060910	1.944282E-5	1508.719734	351.845568	107.729622	367.968715	0.243895	0.306184	0.029491	0.004264
0.032768	1.865293E-5	0.066925	1.970817E-5	1657.713839	357.843404	114.624438	375.753461	0.226670	0.320320	0.032768	0.004271
0.036045	1.853392E-5	0.073535	1.999812E-5	1821.452526	364.118034	121.886752	383.976983	0.210808	0.334745	0.036045	0.004243
0.039322	1.851629E-5	0.080797	2.031468E-5	2001.325876	370.682406	129.537364	392.664456	0.196202	0.349456	0.039322	0.004239
0.042598	1.882255E-5	0.088776	2.066022E-5	2198.969027	377.547523	137.598808	401.840222	0.182740	0.364454	0.042598	0.004310
0.045875	1.918137E-5	0.097543	2.103721E-5	2416.114633	384.727828	146.096756	411.533430	0.170329	0.379741	0.045875	0.004392
0.049152	1.934840E-5	0.107177	2.144840E-5	2654.750701	392.233464	155.056490	421.769612	0.158874	0.395317	0.049152	0.004430
0.052429	1.947647E-5	0.117762	2.189666E-5	2916.909443	400.080000	164.507225	432.581361	0.148301	0.411186	0.052429	0.004459
0.058982	1.957028E-5	0.129391	2.238518E-5	3204.967516	408.282294	174.481675	444.002575	0.138536	0.427355	0.058982	0.004481
0.065536	1.971664E-5	0.142169	2.291754E-5	3521.510470	416.853699	185.013279	456.066793	0.129509	0.443833	0.065536	0.004514
0.072090	1.998921E-5	0.156212	2.349767E-5	3869.296152	425.810209	196.139176	468.812233	0.121162	0.460626	0.072090	0.004577
0.078643	2.034156E-5	0.171637	2.412959E-5	4251.420238	435.168585	207.900794	482.280455	0.113440	0.477748	0.078643	0.004657
0.085197	2.049636E-5	0.188588	2.481815E-5	4671.301805	444.944343	220.341899	496.513868	0.106290	0.495212	0.085197	0.004693
0.091750	2.065713E-5	0.207212	2.556846E-5	5132.622838	455.155691	233.511363	511.560612	0.099668	0.513036	0.091750	0.004730
0.098304	2.085548E-5	0.227678	2.638633E-5	5639.513523	465.819701	247.461960	527.470772	0.093531	0.531240	0.098304	0.004775
0.104858	2.106017E-5	0.250161	2.727778E-5	6196.451139	476.953657	262.250569	544.297852	0.087840	0.549845	0.104858	0.004822
0.117965	2.137962E-5	0.274865	2.825001E-5	6808.333944	488.578818	277.942611	562.104400	0.082561	0.568880	0.117965	0.004895
0.131072	2.183083E-5	0.302013	2.931091E-5	7480.730177	500.710906	294.605798	580.950934	0.077660	0.588375	0.131072	0.004998
0.144179	2.226873E-5	0.331838	3.046889E-5	8219.486673	513.370484	312.316597	600.908404	0.073108	0.608365	0.144179	0.005099
0.157286	2.199393E-5	0.364610	3.173376E-5	9031.247519	526.575415	331.158060	622.050905	0.068878	0.628890	0.157286	0.005036
0.170394	2.281755E-5	0.400620	3.311628E-5	9923.205539	540.342679	351.219855	644.457599	0.064944	0.649995	0.170394	0.005224
0.183501	2.569157E-5	0.440181	3.462825E-5	10903.212357	554.691274	372.602788	668.217964	0.061286	0.671730	0.183501	0.005882
0.399815	3.063054E-5	0.483653	3.628341E-5	11980.056907	569.634536	395.413771	693.423071	0.057881	0.694153	0.399815	0.007013
0.599722	3.791482E-5	0.531423	3.809693E-5	13163.113512	585.191415	419.775977	720.181132	0.054712	0.717331	0.599722	0.008681
0.799629	4.803698E-5	0.583902	4.008518E-5	14463.122067	601.371835	445.819922	748.601020	0.051759	0.741338	0.799629	0.010998
0.999537	5.529098E-5	0.641570	4.226772E-5	15891.456278	618.186364	473.690029	778.804612	0.049008	0.766258	0.999537	0.012659
1.199444	6.323019E-5	0.704922	4.466522E-5	17460.767867	635.646770	503.551700	810.932260	0.046443	0.792188	1.199444	0.014477
1.399351	7.167980E-5	0.774541	4.730252E-5	19185.364008	653.748179	535.574591	845.119414	0.044050	0.819237	1.399351	0.016412
1.599258	7.941892E-5	0.851039	5.020641E-5	21080.007315	672.492172	569.954502	881.529271	0.041818	0.847526	1.599258	0.018183
1.799166	8.873003E-5	0.935083	5.340702E-5	23161.731534	691.868894	606.906205	920.335650	0.039735	0.877198	1.799166	0.020315
1.999073	9.715903E-5	1.027437	5.693946E-5	25448.996909	711.865630	646.672296	961.736831	0.037791	0.908419	1.999073	0.022245
2.198980	0.000107	1.128901	6.084190E-5	27962.566464	732.443720	689.501466	1005.925482	0.035974	0.941371	2.198980	0.024459
2.398888	0.000115	1.240394	6.515908E-5	30723.742420	753.576207	735.693724	1053.148781	0.034278	0.976270	2.398888	0.026251
2.598795	0.000123	1.362886	6.994005E-5	33758.110219	775.201122	785.563891	1103.651850	0.032693	1.013368	2.598795	0.028231
2.798702	0.000133	1.497483	7.524199E-5	37092.137750	797.245146	839.460434	1157.710518	0.031212	1.052951	2.798702	0.030425
2.998610	0.000142	1.645355	8.112788E-5	40755.243489	819.615755	897.774915	1215.635547	0.029828	1.095361	2.998610	0.032413
3.198517	0.000152	1.807875	8.767263E-5	44780.177293	842.192523	960.940473	1277.769477	0.028534	1.140999	3.198517	0.034839
3.398424	0.000160	1.986387	9.495459E-5	49202.870736	864.814573	1029.419894	1344.473712	0.027325	1.190336	3.398424	0.036678
3.598332	0.000169	2.182577	0.000103	54061.499453	887.306954	1103.760955	1416.192740	0.026196	1.243945	3.598332	0.038634
3.798239	0.000179	2.398114	0.000112	59400.988722	909.422055	1184.535423	1493.376256	0.025141	1.302515	3.798239	0.040885
3.998146	0.000185	2.634975	0.000122	65267.323977	930.880175	1272.396262	1576.556421	0.024155	1.366874	3.998146	0.042469
4.198053	0.000197	2.895188	0.000134	71712.710961	951.341699	1368.084317	1666.345020	0.023236	1.438058	4.198053	0.045019
4.397961	0.000205	3.181109	0.000146	78794.768299	970.399185	1472.435241	1763.445524	0.022380	1.517350	4.397961	0.046986
4.597868	0.000211	3.495281	0.000160	86576.035536	987.586159	1586.435032	1868.716814	0.021585	1.606376	4.597868	0.048354
4.797775	0.000220	3.840420	0.000176	95126.212826	1002.367805	1711.265907	1983.222686	0.020848	1.707224	4.797775	0.050264
4.997683	0.000229	4.219720	0.000194	104521.116859	1014.163541	1848.426948	2108.366635	0.020172	1.822612	4.997683	0.052350
5.197590	0.000229	4.636440	0.000214	114844.217942	1022.368748	1999.915671	2246.085606	0.019558	1.956159	5.197590	0.052401
5.397497	0.000242	5.094316	0.000237	126185.924439	1026.411253	2168.586056	2399.226030	0.019013	2.112785	5.397497	0.055402
