MicroRheology Analysis v9.2.8 
08/21/18 4:26:51 PM

Correlation Mode:	Cross
Geometry:	Transmission
Multi-Tau Duration (s):	48
Echo Duration (s):	48
Wavelength (nm):	685.0
Temperature (°C):	25.00
Cuvette Thickness (mm):	10.00
Absorption Length (mm):	Inf
Solvent:	Water
Solvent Refractive Index:	1.329
Particle Radius (nm):	300.0
Mean Count Rate (kHz):	126.1
l* (microns):	612.41



Lag Time (s)	Mean Square Displacement (micron^2)	Fit Lag Time (s)	Mean Square Displacement Fit (micron^2)	Frequency(rad/s)	G1 (Pa)	G2 (Pa)	G* (Pa)	Complex Viscosity (Pa s)	Loss Tangent (-)	Time (s)	Creep Compliance (1/Pa)

4.412500E-6	1.621059E-6	4.412510E-6	1.611211E-6	0.138953	-2.948314	12.155455	12.507903	90.015654	-4.122850	4.412500E-6	0.000371
4.812500E-6	1.657266E-6	4.830640E-6	1.722373E-6	0.152119	-2.847335	13.710966	14.003497	92.056170	-4.815367	4.812500E-6	0.000379
5.212500E-6	1.735463E-6	5.288404E-6	1.838431E-6	0.166533	-2.661198	15.417542	15.645529	93.948488	-5.793459	5.212500E-6	0.000397
5.612500E-6	1.855771E-6	5.789576E-6	1.959452E-6	0.182314	-2.373887	17.280541	17.442833	95.674868	-7.279429	5.612500E-6	0.000425
6.012500E-6	2.085962E-6	6.338183E-6	2.085477E-6	0.199591	-1.968191	19.303507	19.403586	97.216749	-9.807739	6.012500E-6	0.000478
6.412500E-6	2.243941E-6	6.938807E-6	2.216578E-6	0.218504	-1.425869	21.489045	21.536298	98.562557	-15.070845	6.412500E-6	0.000514
7.212500E-6	2.377359E-6	7.596374E-6	2.352801E-6	0.239213	-0.727814	23.836415	23.847524	99.691777	-32.750712	7.212500E-6	0.000544
8.012500E-6	2.552501E-6	8.316198E-6	2.494171E-6	0.261877	0.145678	26.344779	26.345182	100.601268	180.842241	8.012500E-6	0.000584
8.812500E-6	2.679614E-6	9.104280E-6	2.640740E-6	0.286697	1.214724	29.008723	29.034145	101.271342	23.880913	8.812500E-6	0.000614
9.612500E-6	2.733269E-6	9.967004E-6	2.792518E-6	0.313863	2.499215	31.821764	31.919755	101.699633	12.732704	9.612500E-6	0.000626
1.041250E-5	2.875911E-6	1.091141E-5	2.949520E-6	0.343605	4.018792	34.773953	35.005406	101.877010	8.652836	1.041250E-5	0.000658
1.121250E-5	2.978248E-6	1.194535E-5	3.111771E-6	0.376161	5.792526	37.853768	38.294401	101.803225	6.534933	1.121250E-5	0.000682
1.201250E-5	3.134018E-6	1.307745E-5	3.279292E-6	0.411809	7.838056	41.045375	41.787055	101.471958	5.236678	1.201250E-5	0.000718
1.281250E-5	3.289351E-6	1.431651E-5	3.452003E-6	0.450832	10.171554	44.331646	45.483572	100.888156	4.358395	1.281250E-5	0.000753
1.441250E-5	3.445291E-6	1.567335E-5	3.629976E-6	0.493557	12.806912	47.691542	49.381172	100.051651	3.723891	1.441250E-5	0.000789
1.601250E-5	3.541173E-6	1.715833E-5	3.813077E-6	0.540325	15.756033	51.103299	53.477096	98.972165	3.243411	1.601250E-5	0.000811
1.761250E-5	3.704474E-6	1.878442E-5	4.001367E-6	0.591530	19.027411	54.541111	57.764826	97.653281	2.866449	1.761250E-5	0.000848
1.921250E-5	3.824535E-6	2.056427E-5	4.194709E-6	0.647575	22.627658	57.980340	62.239302	96.111285	2.562366	1.921250E-5	0.000876
2.081250E-5	4.014848E-6	2.251292E-5	4.393088E-6	0.708949	26.558519	61.391231	66.889747	94.350639	2.311546	2.081250E-5	0.000919
2.241250E-5	4.209803E-6	2.464641E-5	4.596429E-6	0.776122	30.819579	64.746881	71.707775	92.392458	2.100836	2.241250E-5	0.000964
2.401250E-5	4.403777E-6	2.698208E-5	4.804621E-6	0.849676	35.405552	68.016625	76.679948	90.246154	1.921072	2.401250E-5	0.001008
2.561250E-5	4.668140E-6	2.953885E-5	5.017540E-6	0.930189	40.308145	71.172229	81.793843	87.932501	1.765703	2.561250E-5	0.001069
2.881250E-5	4.949555E-6	3.233813E-5	5.235105E-6	1.018339	45.514463	74.184061	87.033564	85.466207	1.629901	2.881250E-5	0.001133
3.201250E-5	5.203387E-6	3.540210E-5	5.457123E-6	1.114827	51.009205	77.025553	92.384386	82.868822	1.510032	3.201250E-5	0.001191
3.521250E-5	5.455488E-6	3.875732E-5	5.683546E-6	1.220468	56.772772	79.669859	97.828595	80.156606	1.403311	3.521250E-5	0.001249
3.841250E-5	5.614992E-6	4.242978E-5	5.914108E-6	1.336117	62.783121	82.093418	103.349164	77.350406	1.307571	3.841250E-5	0.001286
4.161250E-5	5.806463E-6	4.645057E-5	6.148693E-6	1.462742	69.013658	84.273225	108.925945	74.466940	1.221109	4.161250E-5	0.001329
4.481250E-5	6.030897E-6	5.085189E-5	6.387064E-6	1.601348	75.436554	86.190896	114.540579	71.527601	1.142561	4.481250E-5	0.001381
4.801250E-5	6.256418E-6	5.567128E-5	6.629089E-6	1.753088	82.021774	87.830090	120.173608	68.549687	1.070814	4.801250E-5	0.001432
5.121250E-5	6.492903E-6	6.094686E-5	6.874470E-6	1.919203	88.738374	89.178350	125.806507	65.551425	1.004958	5.121250E-5	0.001487
5.761250E-5	6.759269E-6	6.672220E-5	7.122989E-6	2.101087	95.552344	90.225269	131.418605	62.547907	0.944250	5.761250E-5	0.001548
6.401250E-5	7.047889E-6	7.304464E-5	7.374394E-6	2.300187	102.430374	90.965535	136.991642	59.556753	0.888072	6.401250E-5	0.001614
7.041250E-5	7.355600E-6	7.996634E-5	7.628432E-6	2.518154	109.339253	91.396645	142.507610	56.592092	0.835900	7.041250E-5	0.001684
7.681250E-5	7.619664E-6	8.754340E-5	7.884802E-6	2.756792	116.244588	91.519143	147.947822	53.666669	0.787298	7.681250E-5	0.001745
8.321250E-5	7.871190E-6	9.583894E-5	8.143246E-6	3.018004	123.114920	91.338231	153.296954	50.794148	0.741894	8.321250E-5	0.001802
8.961250E-5	8.061948E-6	0.000105	8.403447E-6	3.303992	129.918948	90.860971	158.539109	47.984105	0.699367	8.961250E-5	0.001846
9.601250E-5	8.286458E-6	0.000115	8.665110E-6	3.617085	136.626717	90.097979	163.659725	45.246304	0.659446	9.601250E-5	0.001897
0.000102	8.549071E-6	0.000126	8.927878E-6	3.959832	143.210867	89.062693	168.646126	42.589209	0.621899	0.000102	0.001957
0.000115	8.838745E-6	0.000138	9.191420E-6	4.335059	149.646830	87.770775	173.487413	40.019616	0.586519	0.000115	0.002024
0.000128	9.142531E-6	0.000151	9.455411E-6	4.745894	155.911052	86.239585	178.172731	37.542501	0.553133	0.000128	0.002093
0.000141	9.454759E-6	0.000165	9.719481E-6	5.195642	161.982638	84.488902	182.693047	35.162749	0.521592	0.000141	0.002165
0.000154	9.707749E-6	0.000181	9.983280E-6	5.687921	167.846452	82.539973	187.043521	32.884341	0.491759	0.000154	0.002223
0.000166	9.945125E-6	0.000198	1.024653E-5	6.226976	173.486304	80.413738	191.216806	30.707812	0.463516	0.000166	0.002277
0.000179	1.013995E-5	0.000216	1.050873E-5	6.817005	178.891742	78.133640	195.210453	28.635811	0.436765	0.000179	0.002322
0.000192	1.033872E-5	0.000237	1.076964E-5	7.462994	184.053908	75.722063	199.021787	26.667823	0.411412	0.000192	0.002367
0.000205	1.055334E-5	0.000259	1.102887E-5	8.170185	188.967557	73.202126	202.650657	24.803679	0.387379	0.000205	0.002416
0.000230	1.082443E-5	0.000284	1.128603E-5	8.944489	193.628234	70.596446	206.096461	23.041727	0.364598	0.000230	0.002478
0.000256	1.111081E-5	0.000311	1.154076E-5	9.792012	198.035939	67.927849	209.361949	21.380891	0.343008	0.000256	0.002544
0.000282	1.137947E-5	0.000340	1.179279E-5	10.719834	202.192978	65.217506	212.450755	19.818474	0.322551	0.000282	0.002605
0.000307	1.159072E-5	0.000373	1.204175E-5	11.735692	206.102451	62.486057	215.366496	18.351410	0.303180	0.000307	0.002654
0.000333	1.179188E-5	0.000408	1.228728E-5	12.847721	209.770698	59.753461	218.115157	16.976953	0.284851	0.000333	0.002700
0.000358	1.198572E-5	0.000447	1.252906E-5	14.065225	213.204741	57.038112	220.702533	15.691361	0.267527	0.000358	0.002744
0.000384	1.220303E-5	0.000489	1.276686E-5	15.398008	216.414052	54.357494	223.136235	14.491240	0.251174	0.000384	0.002794
0.000410	1.240168E-5	0.000535	1.300035E-5	16.857187	219.408519	51.727537	225.423682	13.372556	0.235759	0.000410	0.002839
0.000461	1.259748E-5	0.000586	1.322926E-5	18.454521	222.200066	49.163027	227.573884	12.331606	0.221256	0.000461	0.002884
0.000512	1.281426E-5	0.000642	1.345333E-5	20.203402	224.800363	46.677258	229.595230	11.364187	0.207639	0.000512	0.002934
0.000563	1.301811E-5	0.000702	1.367235E-5	22.117787	227.223235	44.282315	231.497995	10.466599	0.194885	0.000563	0.002981
0.000614	1.320396E-5	0.000769	1.388610E-5	24.214021	229.481082	41.988876	233.290876	9.634537	0.182973	0.000614	0.003023
0.000666	1.339510E-5	0.000842	1.409438E-5	26.508401	231.588187	39.806827	234.984408	8.864526	0.171886	0.000666	0.003067
0.000717	1.354204E-5	0.000922	1.429709E-5	29.020116	233.558892	37.744079	236.589035	8.152588	0.161604	0.000717	0.003101
0.000768	1.369035E-5	0.001009	1.449405E-5	31.770146	235.406930	35.807777	238.114719	7.494921	0.152110	0.000768	0.003134
0.000819	1.384789E-5	0.001104	1.468514E-5	34.780672	237.146488	34.004154	239.571992	6.888078	0.143389	0.000819	0.003171
0.000922	1.400647E-5	0.001209	1.487032E-5	38.076694	238.791389	32.338294	240.971145	6.328573	0.135425	0.000922	0.003207
0.001024	1.418692E-5	0.001324	1.504953E-5	41.685289	240.354682	30.814685	242.321930	5.813128	0.128205	0.001024	0.003248
0.001126	1.439205E-5	0.001449	1.522270E-5	45.634910	241.850321	29.436813	243.635185	5.338790	0.121715	0.001126	0.003295
0.001229	1.456998E-5	0.001587	1.538991E-5	49.959458	243.290850	28.207271	244.920574	4.902387	0.115941	0.001229	0.003336
0.001331	1.472723E-5	0.001737	1.555114E-5	54.693625	244.688779	27.128369	246.188032	4.501220	0.110869	0.001331	0.003372
0.001434	1.483918E-5	0.001901	1.570650E-5	59.876389	246.056253	26.201694	247.447385	4.132637	0.106487	0.001434	0.003398
0.001536	1.494715E-5	0.002082	1.585607E-5	65.550853	247.404458	25.428471	248.707807	3.794120	0.102781	0.001536	0.003422
0.001638	1.508485E-5	0.002279	1.599999E-5	71.762331	248.744665	24.809568	249.978845	3.483427	0.099739	0.001638	0.003454
0.001843	1.525890E-5	0.002495	1.613839E-5	78.562819	250.087063	24.345471	251.269260	3.198323	0.097348	0.001843	0.003494
0.002048	1.544058E-5	0.002731	1.627153E-5	86.006449	251.442143	24.036485	252.588408	2.936854	0.095594	0.002048	0.003535
0.002253	1.562583E-5	0.002990	1.639958E-5	94.156856	252.819232	23.882694	253.944772	2.697040	0.094465	0.002253	0.003578
0.002458	1.579466E-5	0.003273	1.652279E-5	103.079987	254.227071	23.884154	255.346542	2.477169	0.093948	0.002458	0.003616
0.002662	1.595855E-5	0.003584	1.664148E-5	112.846829	255.674775	24.040871	256.802558	2.275674	0.094029	0.002662	0.003654
0.002867	1.610943E-5	0.003923	1.675594E-5	123.541232	257.170106	24.352789	258.320580	2.090967	0.094695	0.002867	0.003688
0.003072	1.627721E-5	0.004295	1.686653E-5	135.247952	258.720849	24.819910	259.908648	1.921720	0.095933	0.003072	0.003727
0.003277	1.644215E-5	0.004702	1.697360E-5	148.063008	260.334741	25.442425	261.575027	1.766647	0.097730	0.003277	0.003765
0.003686	1.661873E-5	0.005147	1.707756E-5	162.094929	262.018524	26.220590	263.327223	1.624525	0.100072	0.003686	0.003805
0.004096	1.681473E-5	0.005635	1.717882E-5	177.456256	263.778677	27.154687	265.172713	1.494299	0.102945	0.004096	0.003850
0.004506	1.700702E-5	0.006169	1.727787E-5	194.270313	265.622051	28.245399	267.119592	1.374989	0.106337	0.004506	0.003894
0.004915	1.717307E-5	0.006754	1.737517E-5	212.679406	267.554745	29.493669	269.175441	1.265639	0.110234	0.004915	0.003932
0.005325	1.734042E-5	0.007394	1.747120E-5	232.833849	269.582682	30.900584	271.347874	1.165414	0.114624	0.005325	0.003970
0.005734	1.748703E-5	0.008094	1.756653E-5	254.898601	271.711471	32.467454	273.644403	1.073542	0.119492	0.005734	0.004004
0.006144	1.761164E-5	0.008862	1.766172E-5	279.052444	273.947029	34.196067	276.073080	0.989323	0.124827	0.006144	0.004032
0.006554	1.773405E-5	0.009701	1.775733E-5	305.497295	276.294256	36.088272	278.641130	0.912090	0.130615	0.006554	0.004060
0.007373	1.789013E-5	0.010621	1.785399E-5	334.441408	278.759500	38.146711	281.357478	0.841276	0.136845	0.007373	0.004096
0.008192	1.805711E-5	0.011627	1.795234E-5	366.135163	281.347757	40.374398	284.229929	0.776298	0.143504	0.008192	0.004134
0.009011	1.822571E-5	0.012729	1.805302E-5	400.833930	284.063681	42.774011	287.266063	0.716671	0.150579	0.009011	0.004173
0.009830	1.837142E-5	0.013935	1.815676E-5	438.811080	286.913680	45.349484	290.475534	0.661960	0.158060	0.009830	0.004206
0.010650	1.845857E-5	0.015255	1.826426E-5	480.394396	289.902714	48.105165	293.866791	0.611720	0.165936	0.010650	0.004226
0.011469	1.849756E-5	0.016701	1.837629E-5	525.918921	293.036230	51.045489	297.448943	0.565579	0.174195	0.011469	0.004235
0.012288	1.848146E-5	0.018284	1.849361E-5	575.758016	296.319344	54.175310	301.231004	0.523190	0.182827	0.012288	0.004231
0.013107	1.838557E-5	0.020016	1.861705E-5	630.312377	299.758691	57.500695	305.223857	0.484242	0.191823	0.013107	0.004209
0.014746	1.820053E-5	0.021913	1.874747E-5	690.047248	303.358817	61.027554	309.436478	0.448428	0.201173	0.014746	0.004167
0.016384	1.802663E-5	0.023989	1.888574E-5	755.428971	307.127021	64.762995	313.880953	0.415500	0.210867	0.016384	0.004127
0.018022	1.798193E-5	0.026263	1.903285E-5	827.018613	311.068855	68.714731	318.567963	0.385200	0.220899	0.018022	0.004117
0.019661	1.811917E-5	0.028752	1.918973E-5	905.392684	315.190256	72.890393	323.508743	0.357313	0.231258	0.019661	0.004148
0.021299	1.839889E-5	0.031476	1.935742E-5	991.182775	319.498768	77.299253	328.716652	0.331641	0.241939	0.021299	0.004213
0.022938	1.874062E-5	0.034459	1.953701E-5	1085.111328	324.000954	81.951185	334.204450	0.307991	0.252935	0.022938	0.004291
0.024576	1.912240E-5	0.037724	1.972961E-5	1187.942494	328.703301	86.856089	339.985059	0.286197	0.264239	0.024576	0.004378
0.026214	1.943834E-5	0.041298	1.993647E-5	1300.500628	333.614478	92.025784	346.074219	0.266108	0.275845	0.026214	0.004451
0.029491	1.964139E-5	0.045212	2.015890E-5	1423.734699	338.742013	97.472878	352.487040	0.247579	0.287750	0.029491	0.004497
0.032768	1.968633E-5	0.049497	2.039817E-5	1558.649120	344.094025	103.210530	359.239629	0.230481	0.299949	0.032768	0.004507
0.036045	1.962553E-5	0.054187	2.065580E-5	1706.346464	349.679451	109.253335	366.349573	0.214698	0.312439	0.036045	0.004493
0.039322	1.968852E-5	0.059322	2.093329E-5	1868.046423	355.507120	115.616886	373.834959	0.200121	0.325217	0.039322	0.004508
0.042598	2.002091E-5	0.064943	2.123232E-5	2045.070213	361.586782	122.318156	381.715512	0.186652	0.338282	0.042598	0.004584
0.045875	2.039728E-5	0.071097	2.155463E-5	2238.878291	367.926621	129.374195	390.009847	0.174199	0.351630	0.045875	0.004670
0.049152	2.061513E-5	0.077835	2.190217E-5	2451.003440	374.539727	136.805834	398.742828	0.162686	0.365264	0.049152	0.004720
0.052429	2.073427E-5	0.085210	2.227692E-5	2683.266531	381.436285	144.634855	407.937349	0.152030	0.379185	0.052429	0.004747
0.058982	2.090068E-5	0.093285	2.268118E-5	2937.561353	388.626756	152.883255	417.617103	0.142165	0.393394	0.058982	0.004785
0.065536	2.111822E-5	0.102124	2.311725E-5	3215.939774	396.121968	161.574454	427.807103	0.133027	0.407891	0.065536	0.004835
0.072090	2.148085E-5	0.111801	2.358778E-5	3520.635191	403.937490	170.736957	438.539171	0.124563	0.422682	0.072090	0.004918
0.078643	2.197728E-5	0.122396	2.409568E-5	3854.260094	412.085226	180.399943	449.842609	0.116713	0.437773	0.078643	0.005032
0.085197	2.225647E-5	0.133994	2.464387E-5	4219.525602	420.577941	190.593537	461.748525	0.109431	0.453171	0.085197	0.005096
0.091750	2.249456E-5	0.146692	2.523579E-5	4619.391271	429.428411	201.349804	474.289473	0.102674	0.468879	0.091750	0.005150
0.098304	2.279199E-5	0.160592	2.587501E-5	5057.065491	438.656261	212.708416	487.508138	0.096401	0.484909	0.098304	0.005218
0.104858	2.303552E-5	0.175811	2.656575E-5	5536.357175	448.270710	224.705520	501.437135	0.090572	0.501272	0.104858	0.005274
0.117965	2.344846E-5	0.192469	2.731209E-5	6060.938457	458.291306	237.384368	516.122329	0.085156	0.517977	0.117965	0.005369
0.131072	2.408196E-5	0.210708	2.811918E-5	6635.252975	468.734271	250.791947	531.609271	0.080119	0.535041	0.131072	0.005514
0.144179	2.473869E-5	0.230677	2.899224E-5	7264.026192	479.615565	264.977212	547.945264	0.075433	0.552478	0.144179	0.005664
0.157286	2.466037E-5	0.252536	2.993698E-5	7952.365899	490.953514	279.994433	565.183364	0.071071	0.570307	0.157286	0.005646
0.170394	2.583419E-5	0.276466	3.095997E-5	8705.962425	502.766012	295.902333	583.379683	0.067009	0.588549	0.170394	0.005915
0.183501	2.946639E-5	0.302664	3.206841E-5	9531.008925	515.069718	312.762773	602.592206	0.063224	0.607224	0.183501	0.006747
0.399815	3.505256E-5	0.331345	3.327015E-5	10434.172353	527.884260	330.644740	622.886616	0.059697	0.626358	0.399815	0.008025
0.599722	4.291409E-5	0.362741	3.457387E-5	11422.906303	541.227567	349.622261	644.331441	0.056407	0.645980	0.599722	0.009825
0.799630	5.188751E-5	0.397116	3.598961E-5	12505.261844	555.120732	369.778184	667.004447	0.053338	0.666122	0.799630	0.011880
0.999537	5.983384E-5	0.434747	3.752793E-5	13690.259348	569.580904	391.199745	690.984549	0.050473	0.686820	0.999537	0.013699
1.199444	6.750546E-5	0.475944	3.920095E-5	14987.515087	584.627890	413.983376	716.360248	0.047797	0.708114	1.199444	0.015456
1.399352	7.631438E-5	0.521050	4.102230E-5	16407.736361	600.279909	438.233829	743.225981	0.045297	0.730049	1.399352	0.017473
1.599259	8.461352E-5	0.570422	4.300652E-5	17962.583457	616.556085	464.066631	771.685976	0.042961	0.752675	1.599259	0.019373
1.799167	9.278847E-5	0.624474	4.517064E-5	19664.953470	633.466637	491.599386	801.841591	0.040775	0.776046	1.799167	0.021244
1.999074	9.966340E-5	0.683647	4.753339E-5	21528.258910	651.034212	520.972940	833.821533	0.038731	0.800224	1.999074	0.022819
2.198981	0.000110	0.748438	5.011615E-5	23568.350616	669.267070	552.331858	867.749326	0.036818	0.825279	2.198981	0.025148
2.398889	0.000118	0.819358	5.294176E-5	25801.577377	688.183366	585.844167	903.775267	0.035028	0.851291	2.398889	0.026963
2.598796	0.000127	0.897000	5.603713E-5	28246.913411	707.778954	621.674219	942.034969	0.033350	0.878345	2.598796	0.029050
2.798704	0.000137	0.981991	5.943159E-5	30923.247134	728.071249	660.025889	982.711513	0.031779	0.906540	2.798704	0.031379
2.998611	0.000148	1.075050	6.315955E-5	33853.719967	749.051067	701.104366	1025.975064	0.030306	0.935990	2.998611	0.033952
3.198518	0.000157	1.176920	6.725797E-5	37061.629519	770.718282	745.145373	1072.029989	0.028926	0.966819	3.198518	0.035881
3.398426	0.000167	1.288458	7.177040E-5	40573.853183	793.056415	792.400110	1121.087157	0.027631	0.999172	3.398426	0.038310
3.598333	0.000178	1.410540	7.674343E-5	44418.934644	816.041532	843.141419	1173.375999	0.026416	1.033209	3.598333	0.040738
3.798241	0.000187	1.544222	8.223383E-5	48628.030042	839.642151	897.672217	1229.151882	0.025277	1.069113	3.798241	0.042780
3.998148	0.000198	1.690532	8.830053E-5	53235.595210	863.822664	956.339682	1288.710666	0.024208	1.107102	3.998148	0.045283
4.198056	0.000206	1.850739	9.501640E-5	58280.738465	888.506768	1019.488489	1352.331711	0.023204	1.147418	4.198056	0.047198
4.397963	0.000217	2.026109	0.000102	63802.550843	913.640475	1087.548825	1420.387752	0.022262	1.190347	4.397963	0.049684
4.597870	0.000222	2.218123	0.000111	69849.432032	939.099793	1160.931827	1493.208334	0.021378	1.236218	4.597870	0.050921
4.797778	0.000233	2.428311	0.000120	76467.500288	964.787410	1240.153656	1571.240223	0.020548	1.285417	4.797778	0.053262
4.997685	0.000243	2.658436	0.000130	83714.578597	990.528895	1325.724330	1654.899542	0.019768	1.338400	4.997685	0.055647
5.197593	0.000251	2.910322	0.000142	91647.151348	1016.147211	1418.237293	1744.692573	0.019037	1.395701	5.197593	0.057484
5.397500	0.000268	3.186103	0.000154	100331.050281	1041.419168	1518.354945	1841.183213	0.018351	1.457967	5.397500	0.061427
5.597407	0.000278	3.488008	0.000168	109838.454706	1066.071115	1626.802680	1944.992181	0.017708	1.525980	5.597407	0.063593
5.797315	0.000283	3.818583	0.000184	120247.262859	1089.777580	1744.383228	2056.815018	0.017105	1.600678	5.797315	0.064902
5.997222	0.000299	4.180383	0.000202	131641.748400	1112.172235	1872.036667	2177.486708	0.016541	1.683225	5.997222	0.068407
6.197130	0.000313	4.576578	0.000222	144116.986677	1132.819458	2010.829423	2307.967698	0.016015	1.775066	6.197130	0.071664
6.397037	0.000321	5.010246	0.000245	157773.933471	1151.246908	2162.055064	2449.459439	0.015525	1.878012	6.397037	0.073474
6.596944	0.000324	5.485053	0.000270	172724.223520	1166.960220	2327.376379	2603.550838	0.015073	1.994392	6.596944	0.074104
6.796852	0.000330	6.004814	0.000298	189092.964004	1179.452133	2508.962120	2772.363297	0.014661	2.127227	6.796852	0.075607
6.996759	0.000344	6.573799	0.000331	207011.921032	1188.296916	2709.911618	2958.998232	0.014294	2.280500	6.996759	0.078660
