MicroRheology Analysis v9.2.8 
08/21/18 5:19:46 PM

Correlation Mode:	Cross
Geometry:	Transmission
Multi-Tau Duration (s):	120
Echo Duration (s):	60
Wavelength (nm):	685.0
Temperature (°C):	25.00
Cuvette Thickness (mm):	10.00
Absorption Length (mm):	Inf
Solvent:	Water
Solvent Refractive Index:	1.329
Particle Radius (nm):	465.0
Mean Count Rate (kHz):	162.4
l* (microns):	898.32



Lag Time (s)	Mean Square Displacement (micron^2)	Fit Lag Time (s)	Mean Square Displacement Fit (micron^2)	Frequency(rad/s)	G1 (Pa)	G2 (Pa)	G* (Pa)	Complex Viscosity (Pa s)	Loss Tangent (-)	Time (s)	Creep Compliance (1/Pa)

8.012500E-6	2.279580E-6	8.012559E-6	2.246995E-6	0.092635	0.635052	5.499943	5.536485	59.766437	8.660615	8.012500E-6	0.000809
8.812500E-6	2.457279E-6	8.710512E-6	2.358579E-6	0.100702	0.698189	5.946372	5.987220	59.454624	8.516853	8.812500E-6	0.000872
9.612500E-6	2.599997E-6	9.469163E-6	2.473767E-6	0.109475	0.777275	6.428636	6.475455	59.150191	8.270736	9.612500E-6	0.000923
1.041250E-5	2.707708E-6	1.029384E-5	2.592597E-6	0.119009	0.874739	6.949043	7.003883	58.851821	7.944129	1.041250E-5	0.000961
1.121250E-5	2.758420E-6	1.119040E-5	2.715112E-6	0.129374	0.993258	7.509697	7.575098	58.551839	7.560671	1.121250E-5	0.000979
1.201250E-5	2.797928E-6	1.216505E-5	2.841329E-6	0.140644	1.135757	8.112576	8.191693	58.244363	7.142881	1.201250E-5	0.000993
1.281250E-5	2.900761E-6	1.322459E-5	2.971264E-6	0.152894	1.305420	8.759544	8.856282	57.924332	6.710134	1.281250E-5	0.001029
1.441250E-5	2.983941E-6	1.437648E-5	3.104938E-6	0.166209	1.505764	9.452632	9.571812	57.588969	6.277632	1.441250E-5	0.001059
1.601250E-5	3.141526E-6	1.562883E-5	3.242366E-6	0.180686	1.740562	10.193503	10.341038	57.232103	5.856443	1.601250E-5	0.001115
1.761250E-5	3.294375E-6	1.698988E-5	3.383495E-6	0.196425	2.013797	10.983444	11.166531	56.848698	5.454098	1.761250E-5	0.001169
1.921250E-5	3.444727E-6	1.846985E-5	3.528398E-6	0.213533	2.329767	11.823829	12.051172	56.436943	5.075111	1.921250E-5	0.001222
2.081250E-5	3.592761E-6	2.007850E-5	3.677004E-6	0.232132	2.693005	12.715581	12.997625	55.992358	4.721707	2.081250E-5	0.001275
2.241250E-5	3.728710E-6	2.182709E-5	3.829304E-6	0.252351	3.108222	13.659246	14.008427	55.511706	4.394553	2.241250E-5	0.001323
2.401250E-5	3.898872E-6	2.372847E-5	3.985327E-6	0.274329	3.580408	14.655283	15.086307	54.993544	4.093188	2.401250E-5	0.001384
2.561250E-5	4.143053E-6	2.579518E-5	4.144978E-6	0.298224	4.114572	15.703258	16.233361	54.433523	3.816498	2.561250E-5	0.001470
2.881250E-5	4.346510E-6	2.804160E-5	4.308220E-6	0.324195	4.716059	16.803039	17.452316	53.832736	3.562941	2.881250E-5	0.001542
3.201250E-5	4.567773E-6	3.048445E-5	4.475077E-6	0.352436	5.390000	17.953044	18.744703	53.186091	3.330806	3.201250E-5	0.001621
3.521250E-5	4.777694E-6	3.313915E-5	4.645384E-6	0.383131	6.141754	19.152046	20.112733	52.495766	3.118335	3.521250E-5	0.001696
3.841250E-5	4.954232E-6	3.602591E-5	4.819186E-6	0.416501	6.976493	20.397666	21.557741	51.759113	2.923771	3.841250E-5	0.001758
4.161250E-5	5.156862E-6	3.916376E-5	4.996343E-6	0.452774	7.899567	21.687735	23.081616	50.978212	2.745433	4.161250E-5	0.001830
4.481250E-5	5.317250E-6	4.257452E-5	5.176776E-6	0.492217	8.915671	23.018329	24.684664	50.150007	2.581783	4.481250E-5	0.001887
4.801250E-5	5.488192E-6	4.628246E-5	5.360421E-6	0.535084	10.029708	24.386217	26.368212	49.278675	2.431399	4.801250E-5	0.001948
5.121250E-5	5.664301E-6	5.031425E-5	5.547218E-6	0.581691	11.246069	25.786799	28.132420	48.363153	2.292961	5.121250E-5	0.002010
5.761250E-5	5.903709E-6	5.469632E-5	5.736984E-6	0.632358	12.568496	27.214823	29.976886	47.404906	2.165321	5.761250E-5	0.002095
6.401250E-5	6.171826E-6	5.946053E-5	5.929664E-6	0.687425	14.001034	28.665692	31.902208	46.408250	2.047398	6.401250E-5	0.002190
7.041250E-5	6.432494E-6	6.463970E-5	6.125119E-6	0.747307	15.546380	30.132678	33.906758	45.371912	1.938244	7.041250E-5	0.002283
7.681250E-5	6.672937E-6	7.026954E-5	6.323205E-6	0.812394	17.206912	31.609614	35.989519	44.300559	1.837030	7.681250E-5	0.002368
8.321250E-5	6.900926E-6	7.638966E-5	6.523801E-6	0.883145	18.984778	33.090112	38.149407	43.197195	1.742981	8.321250E-5	0.002449
8.961250E-5	7.064080E-6	8.304288E-5	6.726768E-6	0.960073	20.880793	34.566571	40.383850	42.063291	1.655424	8.961250E-5	0.002507
9.601250E-5	7.242267E-6	9.027619E-5	6.931970E-6	1.043695	22.895383	36.031897	42.690703	40.903421	1.573763	9.601250E-5	0.002570
0.000102	7.458879E-6	9.813795E-5	7.139194E-6	1.134606	25.027898	37.478237	45.066772	39.720204	1.497458	0.000102	0.002647
0.000115	7.687200E-6	0.000107	7.348381E-6	1.233425	27.276989	38.897977	47.508807	38.517779	1.426036	0.000115	0.002728
0.000128	7.949976E-6	0.000116	7.559273E-6	1.340843	29.641056	40.283884	50.013833	37.300304	1.359057	0.000128	0.002821
0.000141	8.202661E-6	0.000126	7.771683E-6	1.457638	32.116780	41.627771	52.577171	36.070122	1.296138	0.000141	0.002911
0.000154	8.406728E-6	0.000137	7.985500E-6	1.584594	34.700539	42.922491	55.194815	34.832140	1.236940	0.000154	0.002983
0.000166	8.628467E-6	0.000149	8.200547E-6	1.722615	37.387577	44.160567	57.861788	33.589500	1.181156	0.000166	0.003062
0.000179	8.803042E-6	0.000162	8.416594E-6	1.872645	40.172851	45.335421	60.573578	32.346529	1.128509	0.000179	0.003124
0.000192	8.979334E-6	0.000176	8.633440E-6	2.035755	43.050040	46.440265	63.324594	31.106197	1.078751	0.000192	0.003187
0.000205	9.169006E-6	0.000191	8.850935E-6	2.213056	46.012856	47.469528	66.110052	29.872747	1.031658	0.000205	0.003254
0.000230	9.390631E-6	0.000208	9.068872E-6	2.405823	49.053401	48.417263	68.923635	28.648670	0.987032	0.000230	0.003333
0.000256	9.623600E-6	0.000226	9.287074E-6	2.615346	52.164343	49.279238	71.760449	27.438228	0.944692	0.000256	0.003415
0.000282	9.877439E-6	0.000246	9.505346E-6	2.843138	55.337419	50.051128	74.614646	26.243762	0.904472	0.000282	0.003505
0.000307	1.008077E-5	0.000267	9.723470E-6	3.090782	58.563772	50.729490	77.480298	25.068188	0.866226	0.000307	0.003577
0.000333	1.027342E-5	0.000291	9.941281E-6	3.359985	61.834592	51.311827	80.351854	23.914347	0.829824	0.000333	0.003646
0.000358	1.043020E-5	0.000316	1.015864E-5	3.652640	65.140885	51.796304	83.223747	22.784549	0.795143	0.000358	0.003701
0.000384	1.060586E-5	0.000343	1.037527E-5	3.970793	68.473196	52.181749	86.090147	21.680845	0.762076	0.000384	0.003764
0.000410	1.080403E-5	0.000373	1.059108E-5	4.316627	71.822733	52.468165	88.946126	20.605469	0.730523	0.000410	0.003834
0.000461	1.102810E-5	0.000406	1.080585E-5	4.692603	75.180719	52.656040	91.786704	19.559871	0.700393	0.000461	0.003914
0.000512	1.125885E-5	0.000441	1.101948E-5	5.101373	78.537653	52.746404	94.606269	18.545256	0.671607	0.000512	0.003996
0.000563	1.148575E-5	0.000480	1.123177E-5	5.545690	81.884789	52.741496	97.400124	17.563212	0.644094	0.000563	0.004076
0.000614	1.167875E-5	0.000521	1.144256E-5	6.028627	85.215028	52.644382	100.165024	16.614898	0.617783	0.000614	0.004145
0.000666	1.186026E-5	0.000567	1.165177E-5	6.553741	88.519996	52.457929	102.896181	15.700372	0.592611	0.000666	0.004209
0.000717	1.202531E-5	0.000616	1.185922E-5	7.124567	91.792606	52.186419	105.590269	14.820587	0.568525	0.000717	0.004268
0.000768	1.220413E-5	0.000670	1.206487E-5	7.745153	95.025784	51.834212	108.243638	13.975661	0.545475	0.000768	0.004331
0.000819	1.239845E-5	0.000728	1.226853E-5	8.419750	98.213657	51.406505	110.853738	13.165919	0.523415	0.000819	0.004400
0.000922	1.261368E-5	0.000792	1.247015E-5	9.153144	101.350232	50.908557	113.417594	12.391107	0.502303	0.000922	0.004476
0.001024	1.283887E-5	0.000861	1.266969E-5	9.950322	104.431114	50.346400	115.933678	11.651249	0.482102	0.001024	0.004556
0.001126	1.306181E-5	0.000936	1.286702E-5	10.817002	107.451563	49.725882	118.399754	10.945709	0.462775	0.001126	0.004635
0.001229	1.324819E-5	0.001017	1.306218E-5	11.759048	110.408468	49.053557	120.815071	10.274222	0.444292	0.001229	0.004702
0.001331	1.343227E-5	0.001106	1.325507E-5	12.783206	113.299328	48.335763	123.179072	9.636007	0.426620	0.001331	0.004767
0.001434	1.358930E-5	0.001202	1.344568E-5	13.896781	116.120927	47.578919	125.490331	9.030173	0.409736	0.001434	0.004823
0.001536	1.376120E-5	0.001307	1.363408E-5	15.107123	118.872088	46.790030	127.749286	8.456229	0.393617	0.001536	0.004884
0.001638	1.396129E-5	0.001421	1.382019E-5	16.422876	121.552276	45.975591	129.956573	7.913143	0.378237	0.001638	0.004955
0.001843	1.420563E-5	0.001544	1.400414E-5	17.853424	124.160152	45.142066	132.111882	7.399806	0.363579	0.001843	0.005041
0.002048	1.445519E-5	0.001679	1.418594E-5	19.408137	126.697038	44.296309	134.217370	6.915521	0.349624	0.002048	0.005130
0.002253	1.470334E-5	0.001825	1.436566E-5	21.098571	129.163371	43.444312	136.273932	6.458918	0.336352	0.002253	0.005218
0.002458	1.491306E-5	0.001984	1.454340E-5	22.936247	131.560621	42.592435	138.283449	6.029035	0.323748	0.002458	0.005292
0.002662	1.510574E-5	0.002157	1.471928E-5	24.934170	133.890124	41.746640	140.247450	5.624709	0.311798	0.002662	0.005361
0.002867	1.527312E-5	0.002345	1.489343E-5	27.105884	136.154222	40.912874	142.168335	5.244925	0.300489	0.002867	0.005420
0.003072	1.544747E-5	0.002549	1.506601E-5	29.466646	138.355836	40.096641	144.048873	4.888540	0.289808	0.003072	0.005482
0.003277	1.563385E-5	0.002771	1.523715E-5	32.033255	140.497531	39.303186	145.891387	4.554373	0.279743	0.003277	0.005548
0.003686	1.583849E-5	0.003012	1.540707E-5	34.823126	142.583260	38.537670	147.699485	4.241419	0.270282	0.003686	0.005621
0.004096	1.604523E-5	0.003274	1.557598E-5	37.856680	144.615571	37.804729	149.475285	3.948452	0.261415	0.004096	0.005694
0.004506	1.625617E-5	0.003560	1.574409E-5	41.153550	146.599105	37.109162	151.222973	3.674603	0.253134	0.004506	0.005769
0.004915	1.644107E-5	0.003870	1.591168E-5	44.738134	148.537254	36.455003	152.945360	3.418680	0.245427	0.004915	0.005835
0.005325	1.661335E-5	0.004207	1.607897E-5	48.634285	150.435028	35.846415	154.646898	3.179792	0.238285	0.005325	0.005896
0.005734	1.675903E-5	0.004573	1.624634E-5	52.870992	152.295767	35.286963	156.330325	2.956826	0.231700	0.005734	0.005947
0.006144	1.692033E-5	0.004971	1.641401E-5	57.475667	154.124547	34.780405	158.000166	2.748992	0.225664	0.006144	0.006005
0.006554	1.711387E-5	0.005404	1.658235E-5	62.482106	155.925363	34.329870	159.659822	2.555289	0.220169	0.006554	0.006073
0.007373	1.735435E-5	0.005875	1.675173E-5	67.923876	157.703077	33.938549	161.313625	2.374918	0.215205	0.007373	0.006159
0.008192	1.760392E-5	0.006387	1.692250E-5	73.839892	159.462300	33.609255	162.965662	2.207014	0.210766	0.008192	0.006247
0.009011	1.783495E-5	0.006943	1.709508E-5	80.271644	161.207379	33.344682	164.619825	2.050784	0.206843	0.009011	0.006329
0.009830	1.801332E-5	0.007548	1.726987E-5	87.263174	162.942898	33.147404	166.280301	1.905504	0.203430	0.009830	0.006393
0.010650	1.818961E-5	0.008205	1.744733E-5	94.863211	164.673578	33.019808	167.951466	1.770459	0.200517	0.010650	0.006455
0.011469	1.836106E-5	0.008920	1.762794E-5	103.125480	166.404084	32.964149	169.637715	1.644964	0.198097	0.011469	0.006516
0.012288	1.854496E-5	0.009697	1.781220E-5	112.108447	168.138561	32.982540	171.343000	1.528368	0.196163	0.012288	0.006581
0.013107	1.874345E-5	0.010541	1.800059E-5	121.873076	169.881523	33.077078	173.071734	1.420098	0.194707	0.013107	0.006652
0.014746	1.896505E-5	0.011460	1.819367E-5	132.487842	171.637316	33.249726	174.828237	1.319579	0.193721	0.014746	0.006730
0.016384	1.920696E-5	0.012458	1.839203E-5	144.026495	173.410477	33.502444	176.617121	1.226282	0.193197	0.016384	0.006816
0.018022	1.947725E-5	0.013543	1.859629E-5	156.571012	175.205104	33.837096	178.442645	1.139691	0.193128	0.018022	0.006912
0.019661	1.974215E-5	0.014722	1.880705E-5	170.207829	177.025511	34.255584	180.309391	1.059348	0.193506	0.019661	0.007006
0.021299	2.001406E-5	0.016005	1.902498E-5	185.033038	178.875622	34.759734	182.221643	0.984806	0.194323	0.021299	0.007103
0.022938	2.024676E-5	0.017399	1.925082E-5	201.148277	180.759726	35.351473	184.184161	0.915664	0.195572	0.022938	0.007185
0.024576	2.050043E-5	0.018914	1.948524E-5	218.667800	182.682037	36.032790	186.201741	0.851528	0.197243	0.024576	0.007275
0.026214	2.078008E-5	0.020562	1.972913E-5	237.716030	184.645796	36.805467	188.278285	0.792030	0.199330	0.026214	0.007374
0.029491	2.109603E-5	0.022352	1.998316E-5	258.418234	186.655721	37.671688	190.419312	0.736865	0.201824	0.029491	0.007487
0.032768	2.147291E-5	0.024299	2.024832E-5	280.927228	188.715152	38.633478	192.629058	0.685690	0.204718	0.032768	0.007620
0.036045	2.185386E-5	0.026415	2.052542E-5	305.393902	190.828322	39.693098	194.912776	0.638234	0.208004	0.036045	0.007756
0.039322	2.220746E-5	0.028717	2.081556E-5	331.993440	192.998883	40.852855	197.275250	0.594214	0.211674	0.039322	0.007881
0.042598	2.256806E-5	0.031218	2.111961E-5	360.909269	195.230715	42.115184	199.721608	0.553385	0.215720	0.042598	0.008009
0.045875	2.282714E-5	0.033937	2.143874E-5	392.343971	197.527807	43.482755	202.257224	0.515510	0.220135	0.045875	0.008101
0.049152	2.311711E-5	0.036892	2.177403E-5	426.519826	199.893573	44.958177	204.886989	0.480369	0.224911	0.049152	0.008204
0.052429	2.352011E-5	0.040106	2.212674E-5	463.669222	202.332053	46.544357	207.616562	0.447769	0.230039	0.052429	0.008347
0.058982	2.400448E-5	0.043599	2.249819E-5	504.054454	204.846983	48.244374	210.451434	0.417517	0.235514	0.058982	0.008519
0.065536	2.461038E-5	0.047397	2.288966E-5	547.955303	207.442368	50.061546	213.397503	0.389443	0.241327	0.065536	0.008734
0.072090	2.525552E-5	0.051525	2.330265E-5	595.680080	210.122250	51.999465	216.460861	0.363384	0.247472	0.072090	0.008963
0.078643	2.577105E-5	0.056012	2.373863E-5	647.564327	212.890562	54.061889	219.647625	0.339190	0.253942	0.078643	0.009146
0.085197	2.633754E-5	0.060891	2.419946E-5	703.969625	215.750795	56.252504	222.963562	0.316723	0.260729	0.085197	0.009347
0.091750	2.674725E-5	0.066194	2.468674E-5	765.277120	218.708221	58.576007	226.416507	0.295862	0.267827	0.091750	0.009492
0.098304	2.712441E-5	0.071959	2.520242E-5	831.939632	221.765699	61.036538	230.011922	0.276477	0.275230	0.098304	0.009626
0.104858	2.763533E-5	0.078228	2.574864E-5	904.392166	224.928594	63.639124	233.758017	0.258470	0.282930	0.104858	0.009807
0.117965	2.838873E-5	0.085041	2.632738E-5	983.163374	228.201362	66.389256	237.662355	0.241732	0.290924	0.117965	0.010075
0.131072	2.935035E-5	0.092447	2.694103E-5	1068.806346	231.587492	69.291868	241.731523	0.226170	0.299204	0.131072	0.010416
0.144179	3.048800E-5	0.100499	2.759224E-5	1161.890048	235.092935	72.353238	245.974956	0.211702	0.307764	0.144179	0.010820
0.157286	3.037320E-5	0.109252	2.828357E-5	1263.096776	238.721433	75.579365	250.400006	0.198243	0.316601	0.157286	0.010779
0.170394	3.209628E-5	0.118768	2.901808E-5	1373.102950	242.478614	78.976980	255.016160	0.185723	0.325707	0.170394	0.011390
0.183501	3.694992E-5	0.129113	2.979880E-5	1492.691758	246.370518	82.553934	259.833763	0.174071	0.335080	0.183501	0.013113
0.399815	4.538718E-5	0.140359	3.062922E-5	1622.728313	250.400390	86.316804	264.860238	0.163219	0.344715	0.399815	0.016107
0.599722	5.664672E-5	0.152585	3.151289E-5	1764.051293	254.575707	90.274229	270.107806	0.153118	0.354607	0.599722	0.020103
0.799629	6.722866E-5	0.165875	3.245386E-5	1917.705898	258.900954	94.434588	275.585913	0.143706	0.364752	0.799629	0.023858
0.999537	7.874645E-5	0.180320	3.345618E-5	2084.721881	263.383268	98.807449	281.307053	0.134937	0.375147	0.999537	0.027946
1.199444	9.131714E-5	0.196026	3.452484E-5	2266.302727	268.028692	103.402850	287.283012	0.126763	0.385790	1.199444	0.032407
1.399351	9.995805E-5	0.213101	3.566488E-5	2463.712198	272.842621	108.230467	293.525007	0.119139	0.396677	1.399351	0.035473
1.599259	0.000111	0.231662	3.688150E-5	2678.279375	277.833186	113.302018	300.047707	0.112030	0.407806	1.599259	0.039253
1.799166	0.000122	0.251839	3.818066E-5	2911.552938	283.006490	118.629160	306.864060	0.105395	0.419175	1.799166	0.043155
1.999073	0.000131	0.273775	3.956899E-5	3165.121080	288.371785	124.225672	313.990930	0.099203	0.430783	1.999073	0.046569
2.198981	0.000142	0.297620	4.105333E-5	3440.839521	293.934206	130.103896	321.441038	0.093419	0.442629	2.198981	0.050253
2.398888	0.000152	0.323543	4.264132E-5	3740.516250	299.703113	136.278488	329.232110	0.088018	0.454712	2.398888	0.054099
2.598795	0.000163	0.351724	4.434132E-5	4066.294204	305.687432	142.765712	337.382356	0.082970	0.467032	2.598795	0.057820
2.798703	0.000173	0.382359	4.616221E-5	4420.484076	311.894997	149.581651	345.909178	0.078251	0.479590	2.798703	0.061261
2.998610	0.000183	0.415658	4.811368E-5	4805.513501	318.334860	156.743632	354.831860	0.073838	0.492386	2.998610	0.064929
3.198517	0.000193	0.451864	5.020697E-5	5224.059189	325.016920	164.270789	364.171513	0.069710	0.505422	3.198517	0.068617
3.398425	0.000202	0.491218	5.245317E-5	5679.064593	331.950479	172.182939	373.949308	0.065847	0.518701	3.398425	0.071649
3.598332	0.000212	0.534004	5.486546E-5	6173.668486	339.147281	180.502626	384.190156	0.062230	0.532225	3.598332	0.075221
3.798239	0.000223	0.580513	5.745739E-5	6711.415054	346.617545	189.252987	394.918240	0.058843	0.545999	3.798239	0.079247
3.998147	0.000232	0.631076	6.024454E-5	7296.040158	354.370701	198.457140	406.157396	0.055668	0.560027	3.998147	0.082375
4.198054	0.000243	0.686042	6.324314E-5	7931.494244	362.418609	208.141076	417.935349	0.052693	0.574311	4.198054	0.086141
4.397961	0.000255	0.745800	6.647176E-5	8622.203107	370.776167	218.335548	430.285228	0.049904	0.588861	4.397961	0.090547
4.597869	0.000264	0.810750	6.994924E-5	9373.210462	379.455100	229.071205	443.237848	0.047288	0.603685	4.597869	0.093801
4.797776	0.000273	0.881363	7.369814E-5	10189.737946	388.464220	240.376687	456.820974	0.044831	0.618787	4.797776	0.096856
4.997683	0.000283	0.958134	7.774223E-5	11077.118368	397.822410	252.290317	471.076506	0.042527	0.634178	4.997683	0.100387
5.197591	0.000290	1.041587	8.210678E-5	12041.971584	407.540104	264.848025	486.038488	0.040362	0.649870	5.197591	0.103016
5.397498	0.000300	1.132316	8.682070E-5	13090.777465	417.632723	278.090000	501.748083	0.038328	0.665872	5.397498	0.106557
5.597405	0.000313	1.230929	9.191358E-5	14230.916989	428.115185	292.059763	518.248509	0.036417	0.682199	5.597405	0.111041
5.797313	0.000322	1.338138	9.742041E-5	15470.369067	439.003525	306.804605	535.586744	0.034620	0.698866	5.797313	0.114179
5.997220	0.000331	1.454703	0.000103	16817.880183	450.312350	322.373764	553.810488	0.032930	0.715889	5.997220	0.117629
6.197127	0.000343	1.581382	0.000110	18282.767148	462.056331	338.819301	572.969957	0.031339	0.733286	6.197127	0.121673
6.397035	0.000348	1.719125	0.000117	19875.084017	474.256217	356.203129	593.126992	0.029843	0.751077	6.397035	0.123572
6.596942	0.000360	1.868867	0.000124	21606.459547	486.921868	374.582079	614.332678	0.028433	0.769286	6.596942	0.127848
6.796849	0.000368	2.031626	0.000133	23488.227935	500.073425	394.024618	636.654404	0.027105	0.787934	6.796849	0.130537
6.996757	0.000379	2.208607	0.000141	25533.812915	513.729650	414.606146	660.163926	0.025854	0.807051	6.996757	0.134388
7.196664	0.000382	2.400952	0.000151	27757.803050	527.907312	436.405661	684.935056	0.024675	0.826671	7.196664	0.135667
7.396571	0.000398	2.610076	0.000162	30175.785857	542.616240	459.499784	711.036170	0.023563	0.846823	7.396571	0.141336
7.596479	0.000408	2.837393	0.000173	32803.606347	557.885150	483.991234	738.568450	0.022515	0.867546	7.596479	0.144705
7.796386	0.000415	3.084561	0.000185	35661.301514	573.716418	509.966828	767.604517	0.021525	0.888883	7.796386	0.147350
7.996294	0.000424	3.353189	0.000199	38766.935022	590.135509	537.540603	798.254232	0.020591	0.910877	7.996294	0.150525
8.196201	0.000435	3.645262	0.000213	42143.474240	607.156213	566.830564	830.623594	0.019709	0.933583	8.196201	0.154200
8.396108	0.000445	3.962737	0.000229	45814.632412	624.783613	597.951641	864.812539	0.018876	0.957054	8.396108	0.158058
8.596016	0.000451	4.307891	0.000246	49804.517329	643.038440	631.047344	900.954596	0.018090	0.981352	8.596016	0.160091
8.795923	0.000460	4.683108	0.000265	54142.277307	661.931461	666.269188	939.184694	0.017347	1.006553	8.795923	0.163264
8.995830	0.000470	5.090990	0.000285	58858.574664	681.461008	703.765007	979.629670	0.016644	1.032730	8.995830	0.166659
9.195738	0.000492	5.534464	0.000307	63984.296711	701.648657	743.727149	1022.468049	0.015980	1.059971	9.195738	0.174496
9.395645	0.000500	6.016517	0.000331	69558.054464	722.486714	786.337576	1067.854782	0.015352	1.088377	9.395645	0.177275
9.595552	0.000516	6.540480	0.000357	75616.699500	743.981256	831.809008	1115.981333	0.014758	1.118051	9.595552	0.183050
9.795460	0.000522	7.110174	0.000386	82202.697675	766.137044	880.382281	1167.064237	0.014197	1.149119	9.795460	0.185257
9.995367	0.000534	7.729516	0.000416	89362.337226	788.960616	932.328940	1221.350116	0.013667	1.181718	9.995367	0.189362
10.195274	0.000536	8.402742	0.000450	97145.454439	812.468355	987.965337	1279.132649	0.013167	1.216005	10.195274	0.190091
10.395182	0.000545	9.134522	0.000486	105605.959339	836.703435	1047.684242	1340.788913	0.012696	1.252157	10.395182	0.193537
10.595089	0.000566	9.930255	0.000525	114803.820184	861.747103	1111.982122	1406.809266	0.012254	1.290381	10.595089	0.200750
