MicroRheology Analysis v9.2.8
08/22/18 8:52:30 AM

Correlation Mode:	Cross
Geometry:	Transmission
Multi-Tau Duration (s):	120
Echo Duration (s):	60
Wavelength (nm):	685.0
Temperature (°C):	40.00
Cuvette Thickness (mm):	10.00
Absorption Length (mm):	Inf
Solvent:	Water
Solvent Refractive Index:	1.328
Particle Radius (nm):	465.0
Mean Count Rate (kHz):	167.6
l* (microns):	952.54



Lag Time (s)	Mean Square Displacement (micron^2)	Fit Lag Time (s)	Mean Square Displacement Fit (micron^2)	Frequency(rad/s)	G1 (Pa)	G2 (Pa)	G* (Pa)	Complex Viscosity (Pa s)	Loss Tangent (-)	Time (s)	Creep Compliance (1/Pa)

1.812500E-6	1.851370E-6	1.812508E-6	1.612322E-6	1.250572	-2.465894	5.533556	6.058125	4.844285	-2.244036	1.812500E-6	0.000626
2.012500E-6	1.796459E-6	1.994268E-6	1.692500E-6	1.375983	-2.479302	6.482774	6.940699	5.044174	-2.614758	2.012500E-6	0.000607
2.212500E-6	1.779441E-6	2.194259E-6	1.777338E-6	1.513967	-2.432762	7.535859	7.918807	5.230502	-3.097656	2.212500E-6	0.000601
2.412500E-6	1.800306E-6	2.414305E-6	1.866986E-6	1.665797	-2.314490	8.695113	8.997881	5.401547	-3.756817	2.412500E-6	0.000608
2.612500E-6	1.985122E-6	2.656422E-6	1.961597E-6	1.832860	-2.112218	9.961387	10.182863	5.555724	-4.716079	2.612500E-6	0.000671
2.812500E-6	2.008691E-6	2.922828E-6	2.061316E-6	2.016651	-1.813408	11.334506	11.478653	5.691939	-6.250391	2.812500E-6	0.000679
3.012500E-6	1.759977E-6	3.215965E-6	2.166289E-6	2.218879	-1.405292	12.812643	12.889479	5.809005	-9.117424	3.012500E-6	0.000595
3.212500E-6	1.976459E-6	3.538461E-6	2.276631E-6	2.441387	-0.875215	14.392608	14.419194	5.906149	-16.444650	3.212500E-6	0.000668
3.612500E-6	2.172964E-6	3.893312E-6	2.392486E-6	2.686235	-0.210847	16.069260	16.070643	5.982591	-76.212930	3.612500E-6	0.000734
4.012500E-6	2.356096E-6	4.283741E-6	2.513964E-6	2.955616	0.599519	17.836163	17.846235	6.038076	29.750781	4.012500E-6	0.000796
4.412500E-6	2.572792E-6	4.713309E-6	2.641173E-6	3.251994	1.566996	19.685708	19.747976	6.072574	12.562707	4.412500E-6	0.000869
4.812500E-6	2.636277E-6	5.185945E-6	2.774209E-6	3.578141	2.701629	21.608236	21.776471	6.085974	7.998224	4.812500E-6	0.000891
5.212500E-6	2.616674E-6	5.706039E-6	2.913175E-6	3.936986	4.012142	23.592991	23.931705	6.078687	5.880398	5.212500E-6	0.000884
5.612500E-6	2.754171E-6	6.278281E-6	3.058122E-6	4.331796	5.505955	25.628128	26.212907	6.051280	4.654620	5.612500E-6	0.000931
6.012500E-6	2.975123E-6	6.907861E-6	3.209094E-6	4.766180	7.189010	27.700860	28.618517	6.004497	3.853223	6.012500E-6	0.001005
6.412500E-6	3.217994E-6	7.600597E-6	3.366146E-6	5.244127	9.065634	29.797622	31.146171	5.939248	3.286877	6.412500E-6	0.001087
7.212500E-6	3.519000E-6	8.362794E-6	3.529291E-6	5.770037	11.138298	31.904054	33.792460	5.856541	2.864356	7.212500E-6	0.001189
8.012500E-6	3.716502E-6	9.201540E-6	3.698557E-6	6.348710	13.407536	34.005398	36.553100	5.757563	2.536290	8.012500E-6	0.001256
8.812500E-6	3.910747E-6	1.012430E-5	3.873885E-6	6.985411	15.871947	36.086732	39.422975	5.643616	2.273617	8.812500E-6	0.001321
9.612500E-6	3.956267E-6	1.113951E-5	4.055242E-6	7.685919	18.528331	38.133373	42.396381	5.516111	2.058112	9.612500E-6	0.001337
1.041250E-5	4.063834E-6	1.225664E-5	4.242604E-6	8.456627	21.372103	40.131365	45.467497	5.376552	1.877745	1.041250E-5	0.001373
1.121250E-5	4.212347E-6	1.348582E-5	4.435879E-6	9.304733	24.396226	42.066275	48.628668	5.226229	1.724294	1.121250E-5	0.001423
1.201250E-5	4.410420E-6	1.483815E-5	4.634948E-6	10.237791	27.592626	43.925564	51.873000	5.066816	1.591931	1.201250E-5	0.001490
1.281250E-5	4.532219E-6	1.632616E-5	4.839715E-6	11.264520	30.951201	45.696607	55.191999	4.899632	1.476408	1.281250E-5	0.001531
1.441250E-5	4.615772E-6	1.796352E-5	5.050048E-6	12.394120	34.460814	47.368644	58.577607	4.726242	1.374565	1.441250E-5	0.001560
1.601250E-5	4.691527E-6	1.976492E-5	5.265749E-6	13.636992	38.109617	48.932174	62.021775	4.548054	1.283985	1.601250E-5	0.001585
1.761250E-5	4.747889E-6	2.174681E-5	5.486638E-6	15.004708	41.883315	50.377891	65.514456	4.366260	1.202815	1.761250E-5	0.001604
1.921250E-5	4.917391E-6	2.392788E-5	5.712576E-6	16.509209	45.768676	51.699909	69.048189	4.182404	1.129592	1.921250E-5	0.001662
2.081250E-5	5.173206E-6	2.632749E-5	5.943282E-6	18.164817	49.751449	52.892500	72.614208	3.997519	1.063135	2.081250E-5	0.001748
2.241250E-5	5.465282E-6	2.896761E-5	6.178521E-6	19.986720	53.815787	53.951223	76.202844	3.812674	1.002517	2.241250E-5	0.001847
2.401250E-5	5.737483E-6	3.187266E-5	6.418070E-6	21.991038	57.946433	54.874036	79.805695	3.629010	0.946979	2.401250E-5	0.001939
2.561250E-5	6.037579E-6	3.506880E-5	6.661627E-6	24.196040	62.129354	55.660605	83.415584	3.447489	0.895883	2.561250E-5	0.002040
2.881250E-5	6.257136E-6	3.858557E-5	6.908937E-6	26.622476	66.349857	56.311246	87.024479	3.268835	0.848702	2.881250E-5	0.002114
3.201250E-5	6.476984E-6	4.245478E-5	7.159685E-6	29.292423	70.593459	56.828009	90.624826	3.093798	0.805004	3.201250E-5	0.002188
3.521250E-5	6.706165E-6	4.671273E-5	7.413627E-6	32.230164	74.846210	57.214271	94.209490	2.923022	0.764424	3.521250E-5	0.002266
3.841250E-5	6.877118E-6	5.139715E-5	7.670381E-6	35.462298	79.095536	57.474912	97.772539	2.757084	0.726652	3.841250E-5	0.002324
4.161250E-5	7.039275E-6	5.655151E-5	7.929675E-6	39.018676	83.328909	57.615438	101.307679	2.596389	0.691422	4.161250E-5	0.002378
4.481250E-5	7.259051E-6	6.222280E-5	8.191183E-6	42.931169	87.536244	57.643133	104.810900	2.441371	0.658506	4.481250E-5	0.002453
4.801250E-5	7.491278E-6	6.846226E-5	8.454565E-6	47.236683	91.706895	57.565132	108.276955	2.292222	0.627708	4.801250E-5	0.002531
5.121250E-5	7.774982E-6	7.532836E-5	8.719568E-6	51.973612	95.832533	57.390275	111.702811	2.149222	0.598860	5.121250E-5	0.002627
5.761250E-5	8.057150E-6	8.288216E-5	8.985815E-6	57.186158	99.904540	57.127197	115.084464	2.012453	0.571818	5.761250E-5	0.002722
6.401250E-5	8.360539E-6	9.119348E-5	9.253038E-6	62.920462	103.917032	56.785936	118.420404	1.882065	0.546455	6.401250E-5	0.002825
7.041250E-5	8.592818E-6	0.000100	9.520980E-6	69.230098	107.865121	56.376274	121.709361	1.758041	0.522655	7.041250E-5	0.002903
7.681250E-5	8.864062E-6	0.000110	9.789266E-6	76.173518	111.743242	55.908088	124.949056	1.640321	0.500326	7.681250E-5	0.002995
8.321250E-5	9.090532E-6	0.000121	1.005776E-5	83.811295	115.550104	55.392496	128.141153	1.528925	0.479381	8.321250E-5	0.003072
8.961250E-5	9.272507E-6	0.000134	1.032611E-5	92.217418	119.282417	54.839181	131.284542	1.423641	0.459742	8.961250E-5	0.003133
9.601250E-5	9.451738E-6	0.000147	1.059410E-5	101.465012	122.939889	54.259167	134.381076	1.324408	0.441347	9.601250E-5	0.003194
0.000102	9.665862E-6	0.000162	1.086161E-5	111.640421	126.522379	53.662573	137.432107	1.231025	0.424135	0.000102	0.003266
0.000115	9.868723E-6	0.000178	1.112838E-5	122.835462	130.031536	53.059795	140.440529	1.143322	0.408053	0.000115	0.003334
0.000128	1.013328E-5	0.000196	1.139423E-5	135.154436	133.468763	52.460632	143.408607	1.061072	0.393056	0.000128	0.003424
0.000141	1.040829E-5	0.000216	1.165913E-5	148.707571	136.836939	51.875045	146.339906	0.984078	0.379101	0.000141	0.003517
0.000154	1.063838E-5	0.000237	1.192289E-5	163.618986	140.140122	51.312540	149.238838	0.912112	0.366152	0.000154	0.003595
0.000166	1.088583E-5	0.000261	1.218554E-5	180.027363	143.382590	50.782191	152.109822	0.844926	0.354173	0.000166	0.003678
0.000179	1.106242E-5	0.000287	1.244696E-5	198.083316	146.568441	50.292820	154.957013	0.782282	0.343135	0.000179	0.003738
0.000192	1.125657E-5	0.000316	1.270715E-5	217.947736	149.703021	49.853154	157.785714	0.723961	0.333014	0.000192	0.003803
0.000205	1.146170E-5	0.000348	1.296622E-5	239.801720	152.793223	49.471523	160.602617	0.669731	0.323781	0.000205	0.003873
0.000230	1.169833E-5	0.000382	1.322420E-5	263.853049	155.843851	49.155490	163.412264	0.619331	0.315415	0.000230	0.003953
0.000256	1.194908E-5	0.000421	1.348120E-5	290.309806	158.862889	48.913153	166.222484	0.572569	0.307895	0.000256	0.004037
0.000282	1.220353E-5	0.000463	1.373738E-5	319.426921	161.856084	48.751472	169.038747	0.529194	0.301203	0.000282	0.004123
0.000307	1.240931E-5	0.000509	1.399291E-5	351.459403	164.830989	48.677837	171.868516	0.489014	0.295320	0.000307	0.004193
0.000333	1.263169E-5	0.000560	1.424807E-5	386.704868	167.794720	48.699037	174.718815	0.451814	0.290230	0.000333	0.004268
0.000358	1.281807E-5	0.000617	1.450312E-5	425.482877	170.755149	48.821891	177.597573	0.417402	0.285918	0.000358	0.004331
0.000384	1.301711E-5	0.000679	1.475833E-5	468.153768	173.719188	49.052813	180.511869	0.385582	0.282368	0.000384	0.004398
0.000410	1.323985E-5	0.000747	1.501409E-5	515.097514	176.695470	49.398524	183.470715	0.356186	0.279569	0.000410	0.004474
0.000461	1.349546E-5	0.000821	1.527082E-5	566.759369	179.690472	49.865091	186.481079	0.329030	0.277505	0.000461	0.004560
0.000512	1.376906E-5	0.000904	1.552893E-5	623.589104	182.712989	50.459184	189.552541	0.303970	0.276166	0.000512	0.004652
0.000563	1.406187E-5	0.000994	1.578893E-5	686.125351	185.770742	51.187136	192.693777	0.280843	0.275539	0.000563	0.004751
0.000614	1.430870E-5	0.001094	1.605142E-5	754.939541	188.870686	52.055186	195.912936	0.259508	0.275613	0.000614	0.004835
0.000666	1.455309E-5	0.001204	1.631692E-5	830.640350	192.021398	53.070074	199.220105	0.239839	0.276376	0.000666	0.004917
0.000717	1.476583E-5	0.001325	1.658607E-5	913.937284	195.230956	54.238601	202.625152	0.221706	0.277818	0.000717	0.004989
0.000768	1.499188E-5	0.001457	1.685964E-5	1005.600740	198.506011	55.567297	206.136753	0.204989	0.279928	0.000768	0.005066
0.000819	1.523160E-5	0.001604	1.713831E-5	1106.433898	201.855369	57.063533	209.766147	0.189588	0.282695	0.000819	0.005147
0.000922	1.549977E-5	0.001764	1.742287E-5	1217.387197	205.286798	58.734777	213.523871	0.175395	0.286111	0.000922	0.005237
0.001024	1.579781E-5	0.001941	1.771428E-5	1339.475185	208.807676	60.588593	217.420383	0.162318	0.290165	0.001024	0.005338
0.001126	1.610586E-5	0.002136	1.801335E-5	1473.797119	212.426163	62.633146	221.467347	0.150270	0.294847	0.001126	0.005442
0.001229	1.637770E-5	0.002350	1.832117E-5	1621.591206	216.150503	64.877162	225.676950	0.139170	0.300148	0.001229	0.005534
0.001331	1.663748E-5	0.002586	1.863873E-5	1784.225040	219.988086	67.329454	230.060890	0.128942	0.306060	0.001331	0.005622
0.001434	1.684891E-5	0.002845	1.896722E-5	1963.162587	223.946558	69.999236	234.631528	0.119517	0.312571	0.001434	0.005693
0.001536	1.706873E-5	0.003131	1.930784E-5	2160.018070	228.034825	72.896866	239.403080	0.110834	0.319674	0.001536	0.005767
0.001638	1.733682E-5	0.003445	1.966196E-5	2376.628727	232.260932	76.033093	244.389386	0.102830	0.327361	0.001638	0.005858
0.001843	1.766496E-5	0.003790	2.003083E-5	2614.969214	236.633112	79.419162	249.604954	0.095452	0.335622	0.001843	0.005969
0.002048	1.803201E-5	0.004170	2.041614E-5	2877.212016	241.159902	83.067095	255.065169	0.088650	0.344448	0.002048	0.006093
0.002253	1.841837E-5	0.004588	2.081932E-5	3165.755663	245.849359	86.989306	260.785441	0.082377	0.353832	0.002253	0.006223
0.002458	1.876654E-5	0.005048	2.124225E-5	3483.193238	250.711651	91.199954	266.784114	0.076592	0.363764	0.002458	0.006341
0.002662	1.908588E-5	0.005555	2.168680E-5	3832.506198	255.755817	95.713792	273.079051	0.071253	0.374239	0.002662	0.006449
0.002867	1.936087E-5	0.006112	2.215489E-5	4216.890044	260.989660	100.545152	279.687201	0.066325	0.385246	0.002867	0.006542
0.003072	1.965026E-5	0.006725	2.264870E-5	4639.729070	266.425289	105.711404	286.631009	0.061778	0.396777	0.003072	0.006640
0.003277	1.997068E-5	0.007399	2.317065E-5	5105.057594	272.070542	111.229071	293.929050	0.057576	0.408824	0.003277	0.006748
0.003686	2.035695E-5	0.008141	2.372333E-5	5616.946504	277.938261	117.117525	301.606020	0.053696	0.421380	0.003686	0.006878
0.004096	2.076477E-5	0.008957	2.430940E-5	6180.249326	284.038977	123.396771	309.685169	0.050109	0.434436	0.004096	0.007016
0.004506	2.115960E-5	0.009856	2.493197E-5	6800.088796	290.382625	130.086421	318.189481	0.046792	0.447983	0.004506	0.007149
0.004915	2.150574E-5	0.010844	2.559425E-5	7481.955233	296.983423	137.209604	327.147717	0.043725	0.462011	0.004915	0.007266
0.005325	2.184319E-5	0.011932	2.629998E-5	8232.256304	303.854673	144.790917	336.588877	0.040887	0.476514	0.005325	0.007380
0.005734	2.214187E-5	0.013128	2.705274E-5	9057.922675	311.007018	152.853360	346.539341	0.038258	0.491479	0.005734	0.007481
0.006144	2.248552E-5	0.014445	2.785723E-5	9966.160253	318.458933	161.425689	357.035495	0.035825	0.506896	0.006144	0.007597
0.006554	2.290303E-5	0.015893	2.871785E-5	10965.695867	326.222633	170.534907	368.107811	0.033569	0.522756	0.006554	0.007739
0.007373	2.340102E-5	0.017487	2.963983E-5	12065.322742	334.315956	180.211115	379.793634	0.031478	0.539044	0.007373	0.007907
0.008192	2.395163E-5	0.019241	3.062909E-5	13275.212573	342.757548	190.487337	392.132837	0.029539	0.555750	0.008192	0.008093
0.009011	2.453335E-5	0.021170	3.169164E-5	14606.588485	351.563810	201.395492	405.163247	0.027738	0.572856	0.009011	0.008289
0.009830	2.505050E-5	0.023293	3.283464E-5	16071.278666	360.757567	212.972491	418.931145	0.026067	0.590348	0.009830	0.008464
0.010650	2.556993E-5	0.025629	3.406550E-5	17682.993997	370.359536	225.255702	433.481623	0.024514	0.608208	0.010650	0.008640
0.011469	2.603822E-5	0.028199	3.539313E-5	19456.333230	380.393140	238.284290	448.863390	0.023070	0.626416	0.011469	0.008798
0.012288	2.655605E-5	0.031027	3.682681E-5	21407.441273	390.885815	252.101715	465.131159	0.021728	0.644950	0.012288	0.008973
0.013107	2.716332E-5	0.034139	3.837727E-5	23554.472577	401.861657	266.749253	482.335936	0.020477	0.663784	0.013107	0.009178
0.014746	2.789036E-5	0.037562	4.005620E-5	25916.422334	413.354014	282.275061	500.540459	0.019314	0.682889	0.014746	0.009424
0.016384	2.872007E-5	0.041329	4.187668E-5	28515.373137	425.394188	298.727308	519.805944	0.018229	0.702236	0.016384	0.009704
0.018022	2.962978E-5	0.045473	4.385330E-5	31374.852596	438.019655	316.158284	540.201147	0.017218	0.721790	0.018022	0.010011
0.019661	3.050406E-5	0.050033	4.600315E-5	34521.320806	451.267309	334.619679	561.794013	0.016274	0.741511	0.019661	0.010307
0.021299	3.138807E-5	0.055051	4.834496E-5	37983.107498	465.181949	354.168586	584.661982	0.015393	0.761355	0.021299	0.010606
0.022938	3.214884E-5	0.060572	5.089903E-5	41792.259878	479.810630	374.863877	608.885183	0.014569	0.781275	0.022938	0.010863
0.024576	3.298755E-5	0.066646	5.368889E-5	45983.756502	495.199773	396.760644	634.540640	0.013799	0.801213	0.024576	0.011146
0.026214	3.403007E-5	0.073330	5.674242E-5	50594.680019	511.410996	419.925123	661.723745	0.013079	0.821111	0.026214	0.011498
0.029491	3.532402E-5	0.080683	6.008872E-5	55668.371926	528.505858	444.422633	690.528723	0.012404	0.840904	0.029491	0.011935
0.032768	3.682624E-5	0.088774	6.376261E-5	61251.397373	546.548735	470.314962	721.049016	0.011772	0.860518	0.032768	0.012443
0.036045	3.846058E-5	0.097677	6.780349E-5	67393.827254	565.615326	497.668955	753.389067	0.011179	0.879872	0.036045	0.012995
0.039322	4.001466E-5	0.107472	7.225517E-5	74151.980330	585.789968	526.554943	787.661091	0.010622	0.898880	0.039322	0.013520
0.042598	4.163963E-5	0.118250	7.716939E-5	81588.445555	607.160231	557.038386	823.975309	0.010099	0.917449	0.042598	0.014069
0.045875	4.305188E-5	0.130108	8.260316E-5	89770.539055	629.823019	589.183304	862.446521	0.009607	0.935474	0.045875	0.014547
0.049152	4.470082E-5	0.143156	8.862416E-5	98772.226159	653.891929	623.060365	903.204780	0.009144	0.952849	0.049152	0.015104
0.052429	4.685378E-5	0.157512	9.530920E-5	108677.464119	679.486566	658.734242	946.378779	0.008708	0.969459	0.052429	0.015831
0.058982	4.958770E-5	0.173309	0.000103	119577.264227	706.730681	696.256259	992.089227	0.008297	0.985179	0.058982	0.016755
0.065536	5.278021E-5	0.190690	0.000111	131568.607084	735.772005	735.684302	1040.476735	0.007908	0.999881	0.065536	0.017834
0.072090	5.614980E-5	0.209812	0.000120	144762.620596	766.765011	777.063888	1091.676174	0.007541	1.013432	0.072090	0.018972
0.078643	5.916884E-5	0.230851	0.000131	159279.265692	799.884196	820.436927	1145.832221	0.007194	1.025695	0.078643	0.019992
0.085197	6.219919E-5	0.254001	0.000142	175252.924589	835.313059	865.827401	1203.081458	0.006865	1.036530	0.085197	0.021016
0.091750	6.489297E-5	0.279475	0.000155	192828.876117	873.247732	913.240235	1263.554244	0.006553	1.045797	0.091750	0.021926
0.098304	6.801286E-5	0.307504	0.000170	212165.184697	913.910866	962.673842	1327.393686	0.006256	1.053356	0.098304	0.022980
0.104858	7.201764E-5	0.338339	0.000187	233440.832147	957.537034	1014.100273	1394.731707	0.005975	1.059072	0.104858	0.024334
0.117965	7.716475E-5	0.372268	0.000206	256850.701594	1004.376689	1067.463641	1465.691358	0.005706	1.062812	0.117965	0.026073
0.131072	8.334485E-5	0.409603	0.000227	282608.755521	1054.693099	1122.672731	1540.380341	0.005451	1.064454	0.131072	0.028161
0.144179	8.965459E-5	0.450678	0.000252	310948.626621	1108.776351	1179.611325	1618.909471	0.005206	1.063886	0.144179	0.030293
0.157286	9.653270E-5	0.495872	0.000280	342134.438028	1166.911339	1238.099188	1701.344078	0.004973	1.061005	0.157286	0.032617
0.170394	0.000104	0.545595	0.000312	376446.143318	1229.402325	1297.914410	1787.739324	0.004749	1.055728	0.170394	0.035148
0.183501	0.000110	0.600313	0.000348	414197.895209	1296.557171	1358.772367	1878.116834	0.004534	1.047985	0.183501	0.037317
0.399815	0.000234	0.660516	0.000391	455734.666283	1368.683302	1420.318267	1972.459876	0.004328	1.037726	0.399815	0.078901
0.599722	0.000350	0.726753	0.000439	501437.204882	1446.071303	1482.108678	2070.692721	0.004130	1.024921	0.599722	0.118174
