MicroRheology Analysis v9.2.8
10/02/18 5:17:47 PM

Correlation Mode:	Cross
Geometry:	Transmission
Multi-Tau Duration (s):	120
Echo Duration (s):	60
Wavelength (nm):	685.0
Temperature (°C):	40.00
Cuvette Thickness (mm):	10.00
Absorption Length (mm):	Inf
Solvent:	Water
Solvent Refractive Index:	1.328
Particle Radius (nm):	465.0
Mean Count Rate (kHz):	173.2
l* (microns):	1008.21



Lag Time (s)	Mean Square Displacement (micron^2)	Fit Lag Time (s)	Mean Square Displacement Fit (micron^2)	Frequency(rad/s)	G1 (Pa)	G2 (Pa)	G* (Pa)	Complex Viscosity (Pa s)	Loss Tangent (-)	Time (s)	Creep Compliance (1/Pa)

4.012500E-6	2.157774E-6	4.012561E-6	2.073777E-6	0.625285	-0.515094	2.648015	2.697648	4.314267	-5.140837	4.012500E-6	0.000729
4.412500E-6	2.216854E-6	4.427650E-6	2.235937E-6	0.689972	-0.600988	2.951214	3.011785	4.365082	-4.910605	4.412500E-6	0.000749
4.812500E-6	2.305632E-6	4.885652E-6	2.403964E-6	0.761339	-0.686335	3.297160	3.367836	4.423568	-4.804008	4.812500E-6	0.000779
5.212500E-6	2.424174E-6	5.391067E-6	2.577777E-6	0.840106	-0.769036	3.691262	3.770522	4.488152	-4.799854	5.212500E-6	0.000819
5.612500E-6	2.595367E-6	5.948733E-6	2.757258E-6	0.927015	-0.846336	4.139411	4.225045	4.557689	-4.890980	5.612500E-6	0.000877
6.012500E-6	2.832814E-6	6.564098E-6	2.942329E-6	1.022914	-0.914689	4.647771	4.736922	4.630812	-5.081260	6.012500E-6	0.000957
6.412500E-6	2.993827E-6	7.243242E-6	3.132942E-6	1.128727	-0.969672	5.222798	5.312050	4.706230	-5.386152	6.412500E-6	0.001012
7.212500E-6	3.175519E-6	7.992457E-6	3.328938E-6	1.245486	-1.005868	5.871110	5.956652	4.782593	-5.836859	7.212500E-6	0.001073
8.012500E-6	3.339495E-6	8.819279E-6	3.530325E-6	1.374332	-1.016764	6.599235	6.677104	4.858435	-6.490429	8.012500E-6	0.001128
8.812500E-6	3.605814E-6	9.731645E-6	3.737020E-6	1.516507	-0.994702	7.413555	7.479988	4.932378	-7.453038	8.812500E-6	0.001218
9.612500E-6	3.741914E-6	1.073837E-5	3.948963E-6	1.673386	-0.930824	8.320195	8.372101	5.003091	-8.938529	9.612500E-6	0.001264
1.041250E-5	3.923094E-6	1.184920E-5	4.166099E-6	1.846507	-0.815033	9.324413	9.359965	5.069011	-11.440528	1.041250E-5	0.001326
1.121250E-5	4.069982E-6	1.307491E-5	4.388390E-6	2.037509	-0.636073	10.431078	10.450454	5.129034	-16.399181	1.121250E-5	0.001375
1.201250E-5	4.253472E-6	1.442754E-5	4.615814E-6	2.248295	-0.381511	11.643542	11.649790	5.181612	-30.519538	1.201250E-5	0.001437
1.281250E-5	4.416267E-6	1.592020E-5	4.848329E-6	2.480867	-0.037939	12.964225	12.964281	5.225706	-341.708089	1.281250E-5	0.001492
1.441250E-5	4.583348E-6	1.756700E-5	5.085834E-6	2.737527	0.408896	14.393520	14.399327	5.259975	35.200971	1.441250E-5	0.001549
1.601250E-5	4.705160E-6	1.938430E-5	5.328346E-6	3.020720	0.973807	15.930286	15.960022	5.283516	16.358767	1.601250E-5	0.001590
1.761250E-5	4.836954E-6	2.138961E-5	5.575799E-6	3.333210	1.671954	17.571241	17.650607	5.295378	10.509402	1.761250E-5	0.001634
1.921250E-5	5.013483E-6	2.360220E-5	5.828118E-6	3.678024	2.518409	19.310794	19.474320	5.294778	7.667855	1.921250E-5	0.001694
2.081250E-5	5.247987E-6	2.604372E-5	6.085270E-6	4.058474	3.527943	21.141465	21.433803	5.281247	5.992576	2.081250E-5	0.001773
2.241250E-5	5.517575E-6	2.873820E-5	6.347216E-6	4.478310	4.714519	23.053097	23.530235	5.254266	4.889809	2.241250E-5	0.001864
2.401250E-5	5.790395E-6	3.171089E-5	6.613795E-6	4.941592	6.090879	25.033427	25.763759	5.213656	4.109986	2.401250E-5	0.001956
2.561250E-5	6.103949E-6	3.499112E-5	6.884968E-6	5.452843	7.667811	27.067325	28.132462	5.159229	3.529994	2.561250E-5	0.002062
2.881250E-5	6.423975E-6	3.861095E-5	7.160652E-6	6.016859	9.454630	29.139208	30.634678	5.091474	3.082004	2.881250E-5	0.002171
3.201250E-5	6.727932E-6	4.260541E-5	7.440724E-6	6.639354	11.457830	31.230202	33.265709	5.010383	2.725665	3.201250E-5	0.002273
3.521250E-5	6.972323E-6	4.701299E-5	7.725038E-6	7.326175	13.681142	33.320925	36.020240	4.916650	2.435537	3.521250E-5	0.002356
3.841250E-5	7.161569E-6	5.187595E-5	8.013428E-6	8.083977	16.126015	35.391615	38.892349	4.811042	2.194691	3.841250E-5	0.002420
4.161250E-5	7.360865E-6	5.724298E-5	8.305824E-6	8.920325	18.789951	37.420630	41.873211	4.694135	1.991524	4.161250E-5	0.002487
4.481250E-5	7.607248E-6	6.316468E-5	8.601974E-6	9.843036	21.668076	39.388035	44.954675	4.567156	1.817791	4.481250E-5	0.002570
4.801250E-5	7.887677E-6	6.969881E-5	8.901713E-6	10.861338	24.752089	41.273287	48.126397	4.430982	1.667467	4.801250E-5	0.002665
5.121250E-5	8.178012E-6	7.690931E-5	9.204867E-6	11.985007	28.030187	43.056939	51.376954	4.286769	1.536092	5.121250E-5	0.002763
5.761250E-5	8.482268E-6	8.486528E-5	9.511187E-6	13.224711	31.488830	44.722083	54.695623	4.135865	1.420252	5.761250E-5	0.002866
6.401250E-5	8.803154E-6	9.364370E-5	9.820448E-6	14.592787	35.111758	46.252890	58.070348	3.979387	1.317305	6.401250E-5	0.002974
7.041250E-5	9.072843E-6	0.000103	1.013246E-5	16.102506	38.879928	47.635644	61.488237	3.818551	1.225199	7.041250E-5	0.003066
7.681250E-5	9.377315E-6	0.000114	1.044696E-5	17.768221	42.773451	48.860008	64.937420	3.654695	1.142298	7.681250E-5	0.003168
8.321250E-5	9.651039E-6	0.000126	1.076369E-5	19.606316	46.770956	49.917792	68.405469	3.488951	1.067282	8.321250E-5	0.003261
8.961250E-5	9.857828E-6	0.000139	1.108235E-5	21.634506	50.850574	50.804062	71.880690	3.322502	0.999085	8.961250E-5	0.003331
9.601250E-5	1.010231E-5	0.000153	1.140271E-5	23.872581	54.990188	51.516622	75.351730	3.156413	0.936833	9.601250E-5	0.003413
0.000102	1.035300E-5	0.000169	1.172452E-5	26.342285	59.167230	52.055919	78.807232	2.991663	0.879810	0.000102	0.003498
0.000115	1.058587E-5	0.000187	1.204748E-5	29.067057	63.361457	52.426105	82.238499	2.829268	0.827413	0.000115	0.003577
0.000128	1.089452E-5	0.000206	1.237138E-5	32.074250	67.552111	52.632569	85.635711	2.669921	0.779140	0.000128	0.003681
0.000141	1.120515E-5	0.000227	1.269592E-5	35.392277	71.720389	52.684024	88.991127	2.514422	0.734575	0.000141	0.003786
0.000154	1.146758E-5	0.000251	1.302092E-5	39.053334	75.849874	52.591073	92.298561	2.363398	0.693357	0.000154	0.003875
0.000166	1.173302E-5	0.000277	1.334609E-5	43.093491	79.925325	52.365669	95.552189	2.217323	0.655182	0.000166	0.003964
0.000179	1.194134E-5	0.000305	1.367131E-5	47.551607	83.933325	52.021461	98.747331	2.076635	0.619795	0.000179	0.004035
0.000192	1.216439E-5	0.000337	1.399633E-5	52.470292	87.863732	51.573476	101.881592	1.941701	0.586971	0.000192	0.004110
0.000205	1.240967E-5	0.000372	1.432102E-5	57.898163	91.708008	51.036992	104.953005	1.812717	0.556516	0.000205	0.004193
0.000230	1.268986E-5	0.000410	1.464529E-5	63.887747	95.459475	50.428002	107.960616	1.689849	0.528266	0.000230	0.004288
0.000256	1.299307E-5	0.000452	1.496900E-5	70.496559	99.114475	49.762892	110.905476	1.573204	0.502075	0.000256	0.004390
0.000282	1.329085E-5	0.000499	1.529216E-5	77.789959	102.670116	49.057531	113.788375	1.462764	0.477817	0.000282	0.004491
0.000307	1.354945E-5	0.000551	1.561473E-5	85.836971	106.126203	48.328085	116.612069	1.358530	0.455383	0.000307	0.004578
0.000333	1.379887E-5	0.000608	1.593682E-5	94.715996	109.484620	47.589962	119.380428	1.260404	0.434673	0.000333	0.004662
0.000358	1.400823E-5	0.000671	1.625844E-5	104.514487	112.747878	46.857821	122.097253	1.168233	0.415598	0.000358	0.004733
0.000384	1.423446E-5	0.000740	1.657986E-5	115.326029	115.920556	46.145958	124.767884	1.081871	0.398083	0.000384	0.004810
0.000410	1.449441E-5	0.000817	1.690117E-5	127.256660	119.007826	45.467578	127.397658	1.001108	0.382055	0.000410	0.004897
0.000461	1.478635E-5	0.000901	1.722278E-5	140.420756	122.016403	44.835273	129.993093	0.925740	0.367453	0.000461	0.004996
0.000512	1.511508E-5	0.000994	1.754494E-5	154.947240	124.953577	44.260564	132.560907	0.855523	0.354216	0.000512	0.005107
0.000563	1.544290E-5	0.001097	1.786810E-5	170.977164	127.826991	43.754153	135.107977	0.790211	0.342292	0.000563	0.005218
0.000614	1.572420E-5	0.001211	1.819280E-5	188.664409	130.645197	43.325970	137.641953	0.729560	0.331631	0.000614	0.005313
0.000666	1.599362E-5	0.001336	1.851960E-5	208.181352	133.417080	42.985005	140.170710	0.673311	0.322185	0.000666	0.005404
0.000717	1.623049E-5	0.001474	1.884920E-5	229.718129	136.151361	42.739438	142.701971	0.621205	0.313911	0.000717	0.005484
0.000768	1.647795E-5	0.001627	1.918227E-5	253.481184	138.857548	42.596868	145.244317	0.572998	0.306767	0.000768	0.005568
0.000819	1.676617E-5	0.001795	1.951971E-5	279.704389	141.544272	42.563978	147.805524	0.528435	0.300711	0.000819	0.005665
0.000922	1.709391E-5	0.001981	1.986250E-5	308.636176	144.221510	42.647206	150.394907	0.487289	0.295706	0.000922	0.005776
0.001024	1.745225E-5	0.002185	2.021165E-5	340.566509	146.897493	42.852003	153.020155	0.449311	0.291714	0.001024	0.005897
0.001126	1.780082E-5	0.002412	2.056829E-5	375.794754	149.582068	43.183881	155.690856	0.414298	0.288697	0.001126	0.006015
0.001229	1.810442E-5	0.002661	2.093382E-5	414.675217	152.282849	43.647369	158.414516	0.382021	0.286620	0.001229	0.006117
0.001331	1.838818E-5	0.002936	2.130949E-5	457.567379	155.009426	44.247296	161.200947	0.352300	0.285449	0.001331	0.006213
0.001434	1.862772E-5	0.003240	2.169696E-5	504.902734	157.770012	44.987868	164.058785	0.324931	0.285148	0.001434	0.006294
0.001536	1.888736E-5	0.003575	2.209776E-5	557.137755	160.572363	45.873079	166.996476	0.299740	0.285685	0.001536	0.006382
0.001638	1.920910E-5	0.003945	2.251385E-5	614.769556	163.424900	46.907017	170.023429	0.276564	0.287025	0.001638	0.006490
0.001843	1.957527E-5	0.004353	2.294711E-5	678.363960	166.335930	48.093787	173.149224	0.255245	0.289136	0.001843	0.006614
0.002048	1.998386E-5	0.004804	2.339975E-5	748.548566	169.312334	49.437082	176.382232	0.235632	0.291987	0.002048	0.006752
0.002253	2.039533E-5	0.005300	2.387407E-5	825.983285	172.362197	50.941019	179.732341	0.217598	0.295546	0.002253	0.006891
0.002458	2.075242E-5	0.005849	2.437263E-5	911.429714	175.492852	52.609694	183.208955	0.201013	0.299783	0.002458	0.007012
0.002662	2.108165E-5	0.006454	2.489821E-5	1005.710579	178.711953	54.447481	186.822082	0.185761	0.304666	0.002662	0.007123
0.002867	2.137529E-5	0.007121	2.545378E-5	1109.744825	182.027424	56.459191	190.582327	0.171735	0.310169	0.002867	0.007222
0.003072	2.168635E-5	0.007858	2.604261E-5	1224.558720	185.445524	58.649213	194.498772	0.158832	0.316261	0.003072	0.007327
0.003277	2.204439E-5	0.008671	2.666834E-5	1351.223462	188.975256	61.023269	198.583702	0.146966	0.322917	0.003277	0.007448
0.003686	2.246672E-5	0.009568	2.733479E-5	1491.021848	192.622697	63.586505	202.846609	0.136045	0.330109	0.003686	0.007591
0.004096	2.292587E-5	0.010558	2.804632E-5	1645.252042	196.396827	66.345381	207.300322	0.125999	0.337813	0.004096	0.007746
0.004506	2.337652E-5	0.011650	2.880749E-5	1815.460358	200.304509	69.306257	211.955782	0.116750	0.346004	0.004506	0.007899
0.004915	2.376894E-5	0.012855	2.962353E-5	2003.255728	204.354474	72.476542	216.826198	0.108237	0.354661	0.004915	0.008031
0.005325	2.414234E-5	0.014185	3.050015E-5	2210.489158	208.554505	75.864034	221.924161	0.100396	0.363761	0.005325	0.008157
0.005734	2.446078E-5	0.015652	3.144336E-5	2439.148079	212.913650	79.477623	227.263976	0.093174	0.373286	0.005734	0.008265
0.006144	2.482170E-5	0.017272	3.246017E-5	2691.477866	217.440179	83.326667	232.859540	0.086517	0.383217	0.006144	0.008387
0.006554	2.528007E-5	0.019058	3.355805E-5	2969.898756	222.143507	87.421717	238.726401	0.080382	0.393537	0.006554	0.008542
0.007373	2.584732E-5	0.021030	3.474534E-5	3277.127771	227.033278	91.774530	244.880938	0.074724	0.404234	0.007373	0.008733
0.008192	2.648939E-5	0.023205	3.603157E-5	3616.162557	232.118280	96.397246	251.339064	0.069504	0.415294	0.008192	0.008950
0.009011	2.716464E-5	0.025606	3.742692E-5	3990.224470	237.410000	101.304495	258.120337	0.064688	0.426707	0.009011	0.009178
0.009830	2.777664E-5	0.028255	3.894273E-5	4403.031861	242.917547	106.511150	265.242455	0.060241	0.438466	0.009830	0.009385
0.010650	2.836915E-5	0.031178	4.059205E-5	4858.489681	248.653153	112.034829	272.727324	0.056134	0.450567	0.010650	0.009585
0.011469	2.889826E-5	0.034403	4.238924E-5	5361.110394	254.627074	117.894039	280.595708	0.052339	0.463007	0.011469	0.009764
0.012288	2.948665E-5	0.037962	4.434982E-5	5915.690954	260.851719	124.109928	288.871759	0.048831	0.475787	0.012288	0.009963
0.013107	3.017875E-5	0.041889	4.649235E-5	6527.665286	267.338722	130.705523	297.580117	0.045588	0.488914	0.013107	0.010197
0.014746	3.101074E-5	0.046222	4.883658E-5	7202.935515	274.100494	137.706383	306.747663	0.042586	0.502394	0.014746	0.010478
0.016384	3.195547E-5	0.051004	5.140510E-5	7948.045887	281.150504	145.141542	316.404288	0.039809	0.516241	0.016384	0.010797
0.018022	3.297161E-5	0.056280	5.422348E-5	8770.304459	288.501117	153.042387	326.580567	0.037237	0.530474	0.018022	0.011141
0.019661	3.394505E-5	0.062102	5.732019E-5	9677.634679	296.165030	161.443528	337.309558	0.034855	0.545113	0.019661	0.011469
0.021299	3.494983E-5	0.068527	6.072804E-5	10678.774632	304.155217	170.383634	348.627277	0.032647	0.560186	0.021299	0.011809
0.022938	3.583191E-5	0.075616	6.448290E-5	11783.382065	312.486190	179.907137	360.574814	0.030600	0.575728	0.022938	0.012107
0.024576	3.679289E-5	0.083438	6.862584E-5	13002.326367	321.170895	190.062822	373.195150	0.028702	0.591781	0.024576	0.012432
0.026214	3.796463E-5	0.092070	7.320469E-5	14347.446784	330.220870	200.903782	386.533508	0.026941	0.608392	0.026214	0.012828
0.029491	3.942843E-5	0.101595	7.827160E-5	15831.632416	339.649076	212.490744	400.641749	0.025306	0.625618	0.029491	0.013322
0.032768	4.114084E-5	0.112104	8.388579E-5	17469.392011	349.467341	224.891970	415.576492	0.023789	0.643528	0.032768	0.013901
0.036045	4.300631E-5	0.123701	9.011702E-5	19276.756143	359.682149	238.179890	431.394145	0.022379	0.662195	0.036045	0.014531
0.039322	4.477330E-5	0.136497	9.704027E-5	21270.716878	370.305318	252.441077	448.165734	0.021070	0.681711	0.039322	0.015128
0.042598	4.653972E-5	0.150617	0.000105	23471.195093	381.341014	267.769449	465.962924	0.019853	0.702178	0.042598	0.015725
0.045875	4.804893E-5	0.166200	0.000113	25899.385814	392.790970	284.269194	484.864641	0.018721	0.723716	0.045875	0.016235
0.049152	4.978020E-5	0.183391	0.000123	28578.679057	404.653080	302.057170	504.958066	0.017669	0.746460	0.049152	0.016820
0.052429	5.200914E-5	0.202364	0.000134	31534.908740	416.921490	321.265830	526.341393	0.016691	0.770567	0.052429	0.017573
0.058982	5.484455E-5	0.223299	0.000146	34796.892742	429.585702	342.046314	549.126175	0.015781	0.796224	0.058982	0.018531
0.065536	5.824628E-5	0.246398	0.000159	38396.969884	442.618858	364.559178	573.423794	0.014934	0.823641	0.065536	0.019680
0.072090	6.194849E-5	0.271885	0.000174	42368.937499	455.991575	388.989970	599.367594	0.014146	0.853064	0.072090	0.020931
0.078643	6.539697E-5	0.300011	0.000191	46751.661595	469.660683	415.548317	627.105701	0.013414	0.884784	0.078643	0.022097
0.085197	6.894445E-5	0.331047	0.000210	51588.147112	483.563573	444.464236	656.796914	0.012732	0.919143	0.085197	0.023295
0.091750	7.209472E-5	0.365293	0.000231	56924.904496	497.618838	475.993971	688.618014	0.012097	0.956543	0.091750	0.024360
0.098304	7.573755E-5	0.403085	0.000255	62813.267070	511.726830	510.432742	722.776544	0.011507	0.997471	0.098304	0.025590
0.104858	8.046379E-5	0.444782	0.000282	69311.891981	525.746903	548.096918	759.486694	0.010958	1.042511	0.104858	0.027187
0.117965	8.648135E-5	0.490795	0.000312	76482.343604	539.508619	589.342146	798.995441	0.010447	1.092368	0.117965	0.029221
0.131072	9.361690E-5	0.541563	0.000347	84393.907934	552.798300	634.569155	841.584205	0.009972	1.147922	0.131072	0.031632
0.144179	0.000101	0.597591	0.000385	93123.962157	565.346488	684.222216	887.567852	0.009531	1.210271	0.144179	0.034096
0.157286	0.000109	0.659410	0.000429	102757.549701	576.817964	738.791999	937.300689	0.009121	1.280806	0.157286	0.036774
0.170394	0.000117	0.727626	0.000477	113387.948951	586.801124	798.823999	991.188852	0.008742	1.361320	0.170394	0.039683
0.183501	0.000125	0.802900	0.000532	125117.968205	594.792622	864.923952	1049.700770	0.008390	1.454161	0.183501	0.042159
0.399815	0.000261	0.885954	0.000594	138059.715661	600.198858	937.813702	1113.433073	0.008065	1.562505	0.399815	0.088178
0.599722	0.000392	0.977599	0.000664	152343.866395	602.284926	1018.290164	1183.073113	0.007766	1.690712	0.599722	0.132492
0.799629	0.000535	1.078731	0.000742	168103.015800	600.217240	1107.367999	1259.573190	0.007493	1.844945	0.799629	0.180768
0.999536	0.000683	1.190327	0.000829	185492.041402	593.019177	1206.382402	1344.258251	0.007247	2.034306	0.999536	0.230665
1.199440	0.000824	1.313475	0.000927	204680.957807	579.572457	1317.206222	1439.074864	0.007031	2.272721	1.199440	0.278491
1.399350	0.000977	1.449334	0.001036	225853.444016	558.602002	1442.710820	1547.078119	0.006850	2.582717	1.399350	0.330006
