MicroRheology Analysis v9.2.8
09/01/18 9:29:22 PM

Correlation Mode:	Cross
Geometry:	Transmission
Multi-Tau Duration (s):	120
Echo Duration (s):	60
Wavelength (nm):	685.0
Temperature (°C):	25.00
Cuvette Thickness (mm):	10.00
Absorption Length (mm):	Inf
Solvent:	Water
Solvent Refractive Index:	1.329
Particle Radius (nm):	465.0
Mean Count Rate (kHz):	170.7
l* (microns):	973.14



Lag Time (s)	Mean Square Displacement (micron^2)	Fit Lag Time (s)	Mean Square Displacement Fit (micron^2)	Frequency(rad/s)	G1 (Pa)	G2 (Pa)	G* (Pa)	Complex Viscosity (Pa s)	Loss Tangent (-)	Time (s)	Creep Compliance (1/Pa)

5.212500E-6	2.040992E-6	5.212505E-6	2.005323E-6	0.102087	-0.818746	3.720341	3.809368	37.314755	-4.543950	5.212500E-6	0.000724
5.612500E-6	2.133640E-6	5.677716E-6	2.116436E-6	0.111197	-0.843716	4.132467	4.217717	37.930206	-4.897934	5.612500E-6	0.000757
6.012500E-6	2.240534E-6	6.184453E-6	2.231123E-6	0.121121	-0.857680	4.587641	4.667126	38.532867	-5.348893	6.012500E-6	0.000795
6.412500E-6	2.361664E-6	6.736323E-6	2.349386E-6	0.131931	-0.857661	5.088918	5.160684	39.116490	-5.933484	6.412500E-6	0.000838
7.212500E-6	2.435897E-6	7.337423E-6	2.471265E-6	0.143704	-0.840310	5.639685	5.701944	39.678520	-6.711433	7.212500E-6	0.000864
8.012500E-6	2.557804E-6	7.992316E-6	2.596812E-6	0.156529	-0.801780	6.242883	6.294159	40.210862	-7.786279	8.012500E-6	0.000908
8.812500E-6	2.773586E-6	8.705585E-6	2.726005E-6	0.170496	-0.737832	6.901719	6.941046	40.710927	-9.354058	8.812500E-6	0.000984
9.612500E-6	2.878156E-6	9.482350E-6	2.858851E-6	0.185712	-0.643713	7.618860	7.646005	41.171318	-11.835795	9.612500E-6	0.001021
1.041250E-5	3.023964E-6	1.032869E-5	2.995430E-6	0.202284	-0.514256	8.397082	8.412814	41.589101	-16.328587	1.041250E-5	0.001073
1.121250E-5	3.089485E-6	1.125036E-5	3.135688E-6	0.220339	-0.343824	9.238334	9.244730	41.956902	-26.869407	1.121250E-5	0.001096
1.201250E-5	3.252599E-6	1.225430E-5	3.279667E-6	0.240000	-0.126383	10.144770	10.145557	42.273132	-80.270097	1.201250E-5	0.001154
1.281250E-5	3.378107E-6	1.334795E-5	3.427387E-6	0.261420	0.144525	11.117520	11.118459	42.531045	76.924790	1.281250E-5	0.001199
1.441250E-5	3.486565E-6	1.453920E-5	3.578839E-6	0.284748	0.475684	12.157650	12.166952	42.728829	25.558255	1.441250E-5	0.001237
1.601250E-5	3.613733E-6	1.583673E-5	3.734020E-6	0.310162	0.874134	13.264975	13.293746	42.860691	15.174986	1.601250E-5	0.001282
1.761250E-5	3.764128E-6	1.725005E-5	3.892930E-6	0.337836	1.347201	14.439479	14.502189	42.926670	10.718133	1.761250E-5	0.001336
1.921250E-5	3.895672E-6	1.878941E-5	4.055553E-6	0.367987	1.902347	15.679665	15.794645	42.921764	8.242272	1.921250E-5	0.001383
2.081250E-5	4.054328E-6	2.046615E-5	4.221889E-6	0.400827	2.547025	16.983552	17.173479	42.845090	6.667996	2.081250E-5	0.001439
2.241250E-5	4.204205E-6	2.229242E-5	4.391909E-6	0.436600	3.288583	18.348016	18.640398	42.694477	5.579308	2.241250E-5	0.001492
2.401250E-5	4.392455E-6	2.428220E-5	4.565644E-6	0.475560	4.134365	19.769678	20.197355	42.470716	4.781793	2.401250E-5	0.001559
2.561250E-5	4.666593E-6	2.644888E-5	4.742970E-6	0.518004	5.091157	21.243254	21.844810	42.171152	4.172579	2.561250E-5	0.001656
2.881250E-5	4.948041E-6	2.880951E-5	4.923948E-6	0.564224	6.165698	22.763951	23.584174	41.799328	3.692032	2.881250E-5	0.001756
3.201250E-5	5.199638E-6	3.138021E-5	5.108453E-6	0.614582	7.363766	24.324501	25.414689	41.352789	3.303269	3.201250E-5	0.001845
3.521250E-5	5.402252E-6	3.418054E-5	5.296492E-6	0.669420	8.690863	25.918365	27.336656	40.836303	2.982254	3.521250E-5	0.001917
3.841250E-5	5.537905E-6	3.723127E-5	5.488028E-6	0.729163	10.151544	27.537137	29.348727	40.249870	2.712606	3.841250E-5	0.001965
4.161250E-5	5.693803E-6	4.055356E-5	5.682926E-6	0.794236	11.749496	29.172244	31.449491	39.597139	2.482851	4.161250E-5	0.002021
4.481250E-5	5.916352E-6	4.417241E-5	5.881162E-6	0.865122	13.487155	30.813930	33.636314	38.880425	2.284687	4.481250E-5	0.002100
4.801250E-5	6.166889E-6	4.811433E-5	6.082659E-6	0.942321	15.366330	32.452841	35.906977	38.104819	2.111945	4.801250E-5	0.002189
5.121250E-5	6.386128E-6	5.240820E-5	6.287335E-6	1.026418	17.387477	34.078536	38.257953	37.273274	1.959947	5.121250E-5	0.002266
5.761250E-5	6.635819E-6	5.708559E-5	6.495100E-6	1.118020	19.549551	35.680299	40.684994	36.390235	1.825121	5.761250E-5	0.002355
6.401250E-5	6.900809E-6	6.217959E-5	6.705804E-6	1.217780	21.851092	37.248268	43.184530	35.461678	1.704641	6.401250E-5	0.002449
7.041250E-5	7.138298E-6	6.772839E-5	6.919381E-6	1.326467	24.288422	38.771120	45.750707	34.490651	1.596280	7.041250E-5	0.002533
7.681250E-5	7.404618E-6	7.377356E-5	7.135742E-6	1.444832	26.857610	40.239355	48.379096	33.484232	1.498248	7.681250E-5	0.002628
8.321250E-5	7.647629E-6	8.035714E-5	7.354683E-6	1.573789	29.552400	41.642083	51.062779	32.445750	1.409093	8.321250E-5	0.002714
8.961250E-5	7.812108E-6	8.752855E-5	7.576114E-6	1.714226	32.366342	42.970501	53.796320	31.382286	1.327629	8.961250E-5	0.002772
9.601250E-5	8.006575E-6	9.533943E-5	7.799867E-6	1.867208	35.291658	44.215508	56.573070	30.298222	1.252860	9.601250E-5	0.002841
0.000102	8.234535E-6	0.000104	8.025795E-6	2.033848	38.318945	45.368625	59.385635	29.198665	1.183974	0.000102	0.002922
0.000115	8.466538E-6	0.000113	8.253756E-6	2.215323	41.439555	46.423495	62.228431	28.090006	1.120270	0.000115	0.003005
0.000128	8.756125E-6	0.000123	8.483621E-6	2.413053	44.642232	47.372771	65.093074	26.975400	1.061165	0.000128	0.003107
0.000141	9.042255E-6	0.000134	8.715135E-6	2.628395	47.916145	48.211745	67.973004	25.861029	1.006169	0.000141	0.003209
0.000154	9.274590E-6	0.000146	8.948149E-6	2.862965	51.249540	48.935891	70.860686	24.750801	0.954855	0.000154	0.003291
0.000166	9.497840E-6	0.000159	9.182496E-6	3.118444	54.630630	49.542316	73.749215	23.649365	0.906860	0.000166	0.003371
0.000179	9.684605E-6	0.000173	9.418000E-6	3.396707	58.047898	50.029260	76.632143	22.560717	0.861862	0.000179	0.003437
0.000192	9.877304E-6	0.000189	9.654410E-6	3.699836	61.489112	50.395675	79.502421	21.488093	0.819587	0.000192	0.003505
0.000205	1.009489E-5	0.000206	9.891559E-6	4.030015	64.942715	50.642145	82.354011	20.435160	0.779797	0.000205	0.003583
0.000230	1.032499E-5	0.000224	1.012926E-5	4.389711	68.396413	50.769745	85.180023	19.404472	0.742287	0.000230	0.003664
0.000256	1.057258E-5	0.000244	1.036727E-5	4.781458	71.838653	50.781182	87.974545	18.399104	0.706878	0.000256	0.003752
0.000282	1.083391E-5	0.000266	1.060542E-5	5.208083	75.259799	50.680340	90.733314	17.421632	0.673405	0.000282	0.003845
0.000307	1.105706E-5	0.000290	1.084347E-5	5.672868	78.649799	50.471224	93.451245	16.473369	0.641721	0.000307	0.003924
0.000333	1.126266E-5	0.000316	1.108123E-5	6.179202	81.998048	50.158842	96.122783	15.555856	0.611708	0.000333	0.003997
0.000358	1.143869E-5	0.000344	1.131853E-5	6.730578	85.297070	49.749817	98.745301	14.671148	0.583254	0.000358	0.004059
0.000384	1.161589E-5	0.000374	1.155507E-5	7.331275	88.538441	49.250163	101.314530	13.819496	0.556257	0.000384	0.004122
0.000410	1.180781E-5	0.000408	1.179076E-5	7.985511	91.715570	48.667372	103.828025	13.002051	0.530634	0.000410	0.004190
0.000461	1.202977E-5	0.000444	1.202536E-5	8.698165	94.822536	48.008863	106.283415	12.219062	0.506302	0.000461	0.004269
0.000512	1.227636E-5	0.000484	1.225872E-5	9.474452	97.853794	47.282494	108.678421	11.470681	0.483195	0.000512	0.004357
0.000563	1.252011E-5	0.000527	1.249059E-5	10.319900	100.805529	46.496612	111.012115	10.757092	0.461251	0.000563	0.004443
0.000614	1.273322E-5	0.000574	1.272080E-5	11.240787	103.675025	45.659391	113.284115	10.077952	0.440409	0.000614	0.004519
0.000666	1.293239E-5	0.000625	1.294925E-5	12.244012	106.459391	44.778983	115.493546	9.432655	0.420620	0.000666	0.004589
0.000717	1.309012E-5	0.000681	1.317577E-5	13.336676	109.157231	43.863926	117.640746	8.820845	0.401842	0.000717	0.004645
0.000768	1.325481E-5	0.000742	1.340014E-5	14.526797	111.768050	42.922392	119.726475	8.241767	0.384031	0.000768	0.004704
0.000819	1.344925E-5	0.000808	1.362235E-5	15.823112	114.292450	41.962382	121.752230	7.694582	0.367149	0.000819	0.004773
0.000922	1.367104E-5	0.000880	1.384222E-5	17.235352	116.730852	40.991582	123.719043	7.178214	0.351163	0.000922	0.004852
0.001024	1.391996E-5	0.000959	1.405961E-5	18.773565	119.084364	40.017748	125.628444	6.691773	0.336045	0.001024	0.004940
0.001126	1.417118E-5	0.001044	1.427451E-5	20.448673	121.355994	39.048229	127.483495	6.234316	0.321766	0.001126	0.005029
0.001229	1.438550E-5	0.001137	1.448682E-5	22.273539	123.548188	38.089643	129.286410	5.804484	0.308298	0.001229	0.005105
0.001331	1.458858E-5	0.001239	1.469651E-5	24.261259	125.664089	37.148657	131.040016	5.401204	0.295619	0.001331	0.005177
0.001434	1.476406E-5	0.001349	1.490351E-5	26.426329	127.707586	36.231427	132.747670	5.023311	0.283706	0.001434	0.005240
0.001536	1.493505E-5	0.001470	1.510781E-5	28.784878	129.682139	35.343680	134.412176	4.669541	0.272541	0.001536	0.005300
0.001638	1.512900E-5	0.001601	1.530945E-5	31.353481	131.592767	34.490924	136.037789	4.338842	0.262103	0.001638	0.005369
0.001843	1.534204E-5	0.001744	1.550844E-5	34.151898	133.443319	33.677963	137.627485	4.029863	0.252377	0.001843	0.005445
0.002048	1.557441E-5	0.001899	1.570479E-5	37.199495	135.238860	32.909615	139.185459	3.741595	0.243344	0.002048	0.005527
0.002253	1.581731E-5	0.002069	1.589866E-5	40.519012	136.984639	32.189973	140.715975	3.472838	0.234990	0.002253	0.005613
0.002458	1.604160E-5	0.002254	1.609007E-5	44.135344	138.685170	31.522860	142.222597	3.222420	0.227298	0.002458	0.005693
0.002662	1.625604E-5	0.002455	1.627917E-5	48.073848	140.346061	30.911928	143.710000	2.989359	0.220255	0.002662	0.005769
0.002867	1.643609E-5	0.002674	1.646610E-5	52.364496	141.971975	30.360269	145.181912	2.772526	0.213847	0.002867	0.005833
0.003072	1.660914E-5	0.002912	1.665102E-5	57.037382	143.568421	29.870904	146.642976	2.570998	0.208060	0.003072	0.005894
0.003277	1.680525E-5	0.003172	1.683412E-5	62.127658	145.140263	29.446379	148.097216	2.383757	0.202882	0.003277	0.005964
0.003686	1.704060E-5	0.003455	1.701562E-5	67.671631	146.692891	29.089127	149.549261	2.209925	0.198299	0.003686	0.006047
0.004096	1.730529E-5	0.003764	1.719578E-5	73.710861	148.230941	28.801231	151.003056	2.048586	0.194300	0.004096	0.006141
0.004506	1.757003E-5	0.004100	1.737481E-5	80.287910	149.760048	28.584721	152.463630	1.898961	0.190870	0.004506	0.006235
0.004915	1.778623E-5	0.004465	1.755305E-5	87.453855	151.284347	28.441234	153.934588	1.760181	0.187999	0.004915	0.006312
0.005325	1.797154E-5	0.004864	1.773083E-5	95.257745	152.809244	28.372527	155.420929	1.631583	0.185673	0.005325	0.006378
0.005734	1.811012E-5	0.005298	1.790847E-5	103.759998	154.338701	28.379950	156.926277	1.512397	0.183881	0.005734	0.006427
0.006144	1.824745E-5	0.005771	1.808639E-5	113.018900	155.877792	28.464984	158.455487	1.402026	0.182611	0.006144	0.006476
0.006554	1.840555E-5	0.006286	1.826493E-5	123.105279	157.430735	28.628850	160.012647	1.299803	0.181850	0.006554	0.006532
0.007373	1.859341E-5	0.006847	1.844458E-5	134.091600	159.001715	28.872755	161.601922	1.205161	0.181588	0.007373	0.006598
0.008192	1.881025E-5	0.007458	1.862575E-5	146.057116	160.595302	29.197931	163.227970	1.117563	0.181811	0.008192	0.006675
0.009011	1.904157E-5	0.008123	1.880898E-5	159.092185	162.215255	29.605464	164.894732	1.036473	0.182507	0.009011	0.006758
0.009830	1.925508E-5	0.008848	1.899478E-5	173.289348	163.865866	30.096552	166.606796	0.961437	0.183666	0.009830	0.006833
0.010650	1.948575E-5	0.009638	1.918367E-5	188.755100	165.550701	30.672278	168.368119	0.891992	0.185274	0.010650	0.006915
0.011469	1.968940E-5	0.010498	1.937631E-5	205.599278	167.273854	31.333860	170.183293	0.827743	0.187321	0.011469	0.006987
0.012288	1.989507E-5	0.011435	1.957324E-5	223.947822	169.038711	32.082433	172.056294	0.768287	0.189793	0.012288	0.007060
0.013107	2.010536E-5	0.012455	1.977519E-5	243.930848	170.849255	32.919316	173.991808	0.713283	0.192680	0.013107	0.007135
0.014746	2.031985E-5	0.013567	1.998276E-5	265.697869	172.709384	33.846001	175.994554	0.662386	0.195971	0.014746	0.007211
0.016384	2.055110E-5	0.014777	2.019678E-5	289.412189	174.622048	34.863762	178.068362	0.615276	0.199653	0.016384	0.007293
0.018022	2.082142E-5	0.016096	2.041797E-5	315.239216	176.591068	35.974124	180.218043	0.571687	0.203714	0.018022	0.007389
0.019661	2.110669E-5	0.017532	2.064719E-5	343.371472	178.619993	37.178800	182.448253	0.531344	0.208145	0.019661	0.007490
0.021299	2.144736E-5	0.019097	2.088525E-5	374.015548	180.712132	38.479493	184.763487	0.493999	0.212933	0.021299	0.007611
0.022938	2.175686E-5	0.020801	2.113314E-5	407.392662	182.871188	39.878159	187.168744	0.459431	0.218067	0.022938	0.007721
0.024576	2.204172E-5	0.022658	2.139173E-5	443.750355	185.100286	41.376732	189.668526	0.427422	0.223537	0.024576	0.007822
0.026214	2.232382E-5	0.024680	2.166213E-5	483.347740	187.403629	42.977650	192.268559	0.397785	0.229332	0.026214	0.007922
0.029491	2.263710E-5	0.026882	2.194535E-5	526.487016	189.783730	44.682983	194.972904	0.370328	0.235442	0.029491	0.008034
0.032768	2.298726E-5	0.029281	2.224256E-5	573.463245	192.245422	46.495630	197.788134	0.344901	0.241856	0.032768	0.008158
0.036045	2.338180E-5	0.031894	2.255505E-5	624.644265	194.791631	48.418343	200.718997	0.321333	0.248565	0.036045	0.008298
0.039322	2.375616E-5	0.034740	2.288400E-5	680.390206	197.425965	50.453860	203.770959	0.299491	0.255558	0.039322	0.008431
0.042598	2.412988E-5	0.037841	2.323089E-5	741.104386	200.152772	52.605635	206.950441	0.279246	0.262827	0.042598	0.008563
0.045875	2.439330E-5	0.041218	2.359712E-5	807.242955	202.975926	54.877281	210.263507	0.260471	0.270363	0.045875	0.008657
0.049152	2.469128E-5	0.044896	2.398428E-5	879.289974	205.898955	57.272266	213.715915	0.243055	0.278157	0.049152	0.008763
0.052429	2.506537E-5	0.048903	2.439406E-5	957.759220	208.926186	59.794547	217.314378	0.226899	0.286199	0.052429	0.008895
0.058982	2.554668E-5	0.053266	2.482817E-5	1043.227678	212.061786	62.448414	221.065613	0.211905	0.294482	0.058982	0.009066
0.065536	2.617679E-5	0.058020	2.528871E-5	1136.316344	215.310928	65.238896	224.977575	0.197989	0.302999	0.065536	0.009290
0.072090	2.686982E-5	0.063199	2.577767E-5	1237.728591	218.677791	68.170968	229.057323	0.185063	0.311742	0.072090	0.009536
0.078643	2.745383E-5	0.068838	2.629717E-5	1348.196279	222.166071	71.249215	233.311409	0.173054	0.320703	0.078643	0.009743
0.085197	2.806965E-5	0.074981	2.684967E-5	1468.489572	225.782767	74.480252	237.750218	0.161901	0.329876	0.085197	0.009961
0.091750	2.849647E-5	0.081673	2.743777E-5	1599.556732	229.531353	77.869829	242.380594	0.151530	0.339256	0.091750	0.010113
0.098304	2.892541E-5	0.088962	2.806429E-5	1742.302924	233.417261	81.424082	247.211445	0.141888	0.348835	0.098304	0.010265
0.104858	2.950311E-5	0.096900	2.873209E-5	1897.768660	237.447139	85.150729	252.253425	0.132921	0.358609	0.104858	0.010470
0.117965	3.028565E-5	0.105547	2.944451E-5	2067.133785	241.626651	89.057590	257.516393	0.124577	0.368575	0.117965	0.010748
0.131072	3.125045E-5	0.114967	3.020520E-5	2251.638781	245.960468	93.151859	263.009165	0.116808	0.378727	0.131072	0.011090
0.144179	3.235504E-5	0.125227	3.101786E-5	2452.573625	250.455957	97.442474	268.743785	0.109576	0.389060	0.144179	0.011482
0.157286	3.227667E-5	0.136402	3.188666E-5	2671.449514	255.118466	101.938212	274.730469	0.102839	0.399572	0.157286	0.011454
0.170394	3.396965E-5	0.148576	3.281626E-5	2909.811103	259.956967	106.650118	280.983758	0.096564	0.410261	0.170394	0.012055
0.183501	3.862816E-5	0.161833	3.381133E-5	3169.503069	264.976912	111.588375	287.514746	0.090713	0.421125	0.183501	0.013708
0.399815	4.697995E-5	0.176278	3.487774E-5	3452.350448	270.185984	116.764151	294.337108	0.085257	0.432162	0.399815	0.016672
0.599722	5.853505E-5	0.192009	3.602096E-5	3760.426815	275.592614	122.190267	301.466002	0.080168	0.443373	0.599722	0.020773
0.799629	7.187404E-5	0.209141	3.724734E-5	4096.026584	281.203727	127.879335	308.915296	0.075418	0.454757	0.799629	0.025507
0.999537	8.439104E-5	0.227805	3.856442E-5	4461.541472	287.029018	133.846147	316.702460	0.070985	0.466316	0.999537	0.029949
1.199440	9.711136E-5	0.248138	3.997990E-5	4859.720779	293.075895	140.105345	324.843020	0.066844	0.478051	1.199440	0.034463
1.399350	0.000110	0.270282	4.150192E-5	5293.400770	299.353912	146.673287	333.355393	0.062976	0.489966	1.399350	0.039044
1.599260	0.000123	0.294403	4.313999E-5	5765.776320	305.873424	153.568408	342.259854	0.059361	0.502065	1.599260	0.043769
1.799170	0.000137	0.320673	4.490418E-5	6280.375857	312.642399	160.808583	351.574558	0.055980	0.514353	1.799170	0.048680
1.999070	0.000151	0.349288	4.680605E-5	6840.839433	319.671516	168.414111	361.321451	0.052818	0.526835	1.999070	0.053482
2.198980	0.000165	0.380460	4.885819E-5	7451.290430	326.971748	176.407471	371.524050	0.049860	0.539519	2.198980	0.058444
2.398890	0.000179	0.414413	5.107407E-5	8116.236296	334.555003	184.813405	382.208116	0.047092	0.552416	2.398890	0.063546
2.598800	0.000193	0.451401	5.346933E-5	8840.646499	342.429329	193.655294	393.395753	0.044499	0.565534	2.598800	0.068595
2.798700	0.000208	0.491679	5.605959E-5	9629.554887	350.607854	202.961137	405.116144	0.042070	0.578884	2.798700	0.073752
2.998610	0.000222	0.535559	5.886465E-5	10488.839723	359.102850	212.761508	417.399468	0.039795	0.592481	2.998610	0.078811
3.198520	0.000237	0.583354	6.190445E-5	11424.843513	367.926615	223.088990	430.277459	0.037662	0.606341	3.198520	0.084083
3.398430	0.000252	0.635409	6.520151E-5	12444.444822	377.090434	233.977588	443.782275	0.035661	0.620481	3.398430	0.089435
3.598330	0.000267	0.692122	6.878209E-5	13554.991143	386.609223	245.466783	457.952653	0.033785	0.634922	3.598330	0.094589
3.798240	0.000284	0.753882	7.267262E-5	14764.856383	396.491675	257.594490	472.821922	0.032023	0.649684	3.798240	0.100776
3.998150	0.000298	0.821166	7.690571E-5	16082.448664	406.752584	270.405522	488.433016	0.030371	0.664791	3.998150	0.105867
4.198050	0.000313	0.894439	8.151422E-5	17517.554852	417.407133	283.950505	504.833244	0.028819	0.680272	4.198050	0.111229
4.397960	0.000332	0.974262	8.653824E-5	19080.982826	428.465286	298.279672	522.066340	0.027361	0.696158	4.397960	0.117757
4.597870	0.000346	1.061209	9.201985E-5	20783.830805	439.940300	313.449373	540.183281	0.025991	0.712482	4.597870	0.122732
4.797780	0.000363	1.155906	9.800607E-5	22638.563233	451.844734	329.521393	559.238780	0.024703	0.729280	4.797780	0.128649
4.997680	0.000379	1.259071	0.000105	24658.749179	464.190526	346.562742	579.291445	0.023492	0.746596	4.997680	0.134601
5.197590	0.000395	1.371435	0.000112	26859.140290	476.992670	364.650196	600.409671	0.022354	0.764478	5.197590	0.140069
5.397500	0.000410	1.493830	0.000120	29256.415000	490.255717	383.858355	622.653920	0.021283	0.782976	5.397500	0.145344
5.597410	0.000425	1.627122	0.000128	31867.220506	503.990781	404.273768	646.099053	0.020275	0.802145	5.597410	0.150705
5.797310	0.000440	1.772346	0.000138	34710.763967	518.210812	425.996900	670.832173	0.019326	0.822053	5.797310	0.156227
5.997220	0.000459	1.930488	0.000148	37808.781106	532.913117	449.123025	696.927458	0.018433	0.842770	5.997220	0.162853
6.197130	0.000473	2.102786	0.000159	41182.431632	548.112455	473.774489	724.492602	0.017592	0.864375	6.197130	0.167715
6.397030	0.000486	2.290427	0.000172	44858.288340	563.798007	500.064371	753.613009	0.016800	0.886957	6.397030	0.172551
6.596940	0.000499	2.494840	0.000186	48861.168072	579.974570	528.131809	784.406597	0.016054	0.910612	6.596940	0.177249
6.796850	0.000515	2.717488	0.000201	53221.472835	596.633322	558.123640	816.990403	0.015351	0.935455	6.796850	0.182924
6.996760	0.000528	2.960013	0.000218	57970.839875	613.764160	590.202584	851.496057	0.014688	0.961611	6.996760	0.187435
7.196670	0.000547	3.224124	0.000236	63144.361666	631.347676	624.543615	888.062281	0.014064	0.989223	7.196670	0.194208
7.396570	0.000566	3.511876	0.000257	68779.592166	649.359498	661.340244	926.843394	0.013476	1.018450	7.396570	0.200790
7.596480	0.000581	3.825264	0.000280	74917.884343	667.765242	700.803373	968.006088	0.012921	1.049476	7.596480	0.206355
7.796390	0.000593	4.166664	0.000305	81603.978698	686.518974	743.161412	1011.729799	0.012398	1.082507	7.796390	0.210342
7.996290	0.000609	4.538467	0.000333	88886.046173	705.567651	788.671276	1058.219302	0.011905	1.117783	7.996290	0.216144
8.196200	0.000628	4.943542	0.000364	96817.710209	724.849405	837.626063	1107.711190	0.011441	1.155586	8.196200	0.222884
8.396110	0.000635	5.384684	0.000398	105459.095285	744.266470	890.317416	1160.429955	0.011004	1.196235	8.396110	0.225223
8.596020	0.000650	5.865244	0.000436	114868.786406	763.740106	947.116862	1216.687840	0.010592	1.240104	8.596020	0.230739
8.795920	0.000667	6.388600	0.000478	125120.170742	783.155243	1008.426151	1276.814566	0.010205	1.287645	8.795920	0.236653
8.995830	0.000679	6.958771	0.000525	136287.637890	802.385917	1074.695969	1341.191480	0.009841	1.339375	8.995830	0.240903
9.195740	0.000701	7.579710	0.000577	148448.928513	821.329666	1146.509763	1410.342886	0.009501	1.395919	9.195740	0.248919
9.395650	0.000713	8.256230	0.000635	161695.791587	839.897800	1224.608711	1484.956164	0.009184	1.458045	9.395650	0.253074
9.595550	0.000724	8.993065	0.000699	176127.154636	858.047710	1309.961000	1565.964142	0.008891	1.526676	9.595550	0.257087
