MicroRheology Analysis v9.2.8
08/22/18 12:00:33 PM

Correlation Mode:	Cross
Geometry:	Transmission
Multi-Tau Duration (s):	120
Echo Duration (s):	60
Wavelength (nm):	685.0
Temperature (°C):	25.00
Cuvette Thickness (mm):	10.00
Absorption Length (mm):	Inf
Solvent:	Water
Solvent Refractive Index:	1.329
Particle Radius (nm):	465.0
Mean Count Rate (kHz):	164.3
l* (microns):	949.85



Lag Time (s)	Mean Square Displacement (micron^2)	Fit Lag Time (s)	Mean Square Displacement Fit (micron^2)	Frequency(rad/s)	G1 (Pa)	G2 (Pa)	G* (Pa)	Complex Viscosity (Pa s)	Loss Tangent (-)	Time (s)	Creep Compliance (1/Pa)

4.812500E-6	2.294886E-6	4.812526E-6	2.343602E-6	0.125056	-1.889076	4.099493	4.513806	36.094260	-2.170104	4.812500E-6	0.000814
5.212500E-6	2.453781E-6	5.260311E-6	2.451784E-6	0.136692	-1.955789	4.727852	5.116414	37.430222	-2.417363	5.212500E-6	0.000871
5.612500E-6	2.589971E-6	5.749785E-6	2.563340E-6	0.149411	-1.996944	5.428984	5.784605	38.716160	-2.718646	5.612500E-6	0.000919
6.012500E-6	2.703410E-6	6.284746E-6	2.678309E-6	0.163313	-2.005697	6.206868	6.522885	39.940985	-3.094618	6.012500E-6	0.000959
6.412500E-6	2.742604E-6	6.869429E-6	2.796749E-6	0.178505	-1.974610	7.065490	7.336227	41.098096	-3.578169	6.412500E-6	0.000973
7.212500E-6	2.869696E-6	7.508566E-6	2.918732E-6	0.195114	-1.895408	8.007938	8.229195	42.176275	-4.224915	7.212500E-6	0.001018
8.012500E-6	3.014844E-6	8.207244E-6	3.044312E-6	0.213271	-1.759273	9.036403	9.206064	43.166127	-5.136442	8.012500E-6	0.001070
8.812500E-6	3.215446E-6	8.970767E-6	3.173496E-6	0.233113	-1.556911	10.152404	10.271089	44.060482	-6.520864	8.812500E-6	0.001141
9.612500E-6	3.246745E-6	9.805454E-6	3.306375E-6	0.254799	-1.278518	11.356999	11.428737	44.853882	-8.882940	9.612500E-6	0.001152
1.041250E-5	3.370878E-6	1.071780E-5	3.442969E-6	0.278510	-0.913915	12.649278	12.682250	45.536100	-13.840764	1.041250E-5	0.001196
1.121250E-5	3.460450E-6	1.171508E-5	3.583322E-6	0.304422	-0.452907	14.027840	14.035149	46.104247	-30.972917	1.121250E-5	0.001228
1.201250E-5	3.658885E-6	1.280492E-5	3.727429E-6	0.332746	0.114840	15.489778	15.490204	46.552649	134.881639	1.201250E-5	0.001298
1.281250E-5	3.788297E-6	1.399637E-5	3.875373E-6	0.363703	0.799536	17.031337	17.050094	46.879147	21.301527	1.281250E-5	0.001344
1.441250E-5	3.903890E-6	1.529852E-5	4.027131E-6	0.397547	1.610938	18.646571	18.716029	47.078827	11.574979	1.441250E-5	0.001385
1.601250E-5	3.938015E-6	1.672206E-5	4.182762E-6	0.434530	2.558358	20.329341	20.489687	47.153640	7.946245	1.601250E-5	0.001398
1.761250E-5	4.084561E-6	1.827798E-5	4.342242E-6	0.474960	3.650520	22.071624	22.371475	47.101843	6.046159	1.761250E-5	0.001450
1.921250E-5	4.256156E-6	1.997865E-5	4.505579E-6	0.519153	4.895130	23.864290	24.361171	46.924882	4.875108	1.921250E-5	0.001510
2.081250E-5	4.439483E-6	2.183724E-5	4.672744E-6	0.567459	6.298786	25.696968	26.457681	46.624832	4.079670	2.081250E-5	0.001575
2.241250E-5	4.613928E-6	2.386929E-5	4.843794E-6	0.620258	7.866787	27.558290	28.659129	46.205180	3.503119	2.241250E-5	0.001637
2.401250E-5	4.776794E-6	2.609007E-5	5.018638E-6	0.677962	9.603477	29.436752	30.963675	45.671678	3.065218	2.401250E-5	0.001695
2.561250E-5	5.014801E-6	2.851744E-5	5.197273E-6	0.741047	11.511278	31.318986	33.367475	45.027452	2.720722	2.561250E-5	0.001780
2.881250E-5	5.243216E-6	3.117086E-5	5.379676E-6	0.809995	13.591112	33.191920	35.866724	44.280170	2.442178	2.881250E-5	0.001861
3.201250E-5	5.493674E-6	3.407063E-5	5.565755E-6	0.885357	15.842180	35.041721	38.456428	43.436060	2.211925	3.201250E-5	0.001950
3.521250E-5	5.666620E-6	3.724070E-5	5.755515E-6	0.967721	18.262621	36.855397	41.132026	42.504033	2.018078	3.521250E-5	0.002011
3.841250E-5	5.765726E-6	4.070562E-5	5.948857E-6	1.057767	20.848121	38.618622	43.886697	41.489936	1.852379	3.841250E-5	0.002046
4.161250E-5	5.903289E-6	4.449353E-5	6.145740E-6	1.156184	23.592783	40.318239	46.713807	40.403426	1.708923	4.161250E-5	0.002095
4.481250E-5	6.119404E-6	4.863256E-5	6.345985E-6	1.263751	26.489597	41.941748	49.606542	39.253412	1.583329	4.481250E-5	0.002172
4.801250E-5	6.331185E-6	5.315737E-5	6.549592E-6	1.381335	29.529624	43.476815	52.556942	38.047946	1.472312	4.801250E-5	0.002247
5.121250E-5	6.569385E-6	5.810356E-5	6.756439E-6	1.509853	32.702735	44.912447	55.557149	36.796401	1.373354	5.121250E-5	0.002331
5.761250E-5	6.789786E-6	6.350972E-5	6.966384E-6	1.650331	35.997464	46.238441	58.598727	35.507251	1.284492	5.761250E-5	0.002410
6.401250E-5	7.052491E-6	6.941927E-5	7.179325E-6	1.803877	39.401757	47.446216	61.673672	34.189510	1.204165	6.401250E-5	0.002503
7.041250E-5	7.289826E-6	7.587743E-5	7.395071E-6	1.971737	42.901262	48.527341	64.772071	32.850265	1.131140	7.041250E-5	0.002587
7.681250E-5	7.537289E-6	8.293789E-5	7.613560E-6	2.155167	46.482560	49.476510	67.886328	31.499333	1.064410	7.681250E-5	0.002675
8.321250E-5	7.779979E-6	9.065386E-5	7.834552E-6	2.355685	50.131129	50.288585	71.007548	30.143059	1.003141	8.321250E-5	0.002761
8.961250E-5	7.943979E-6	9.908806E-5	8.057932E-6	2.574864	53.831982	50.960321	74.127165	28.788770	0.946655	8.961250E-5	0.002819
9.601250E-5	8.115037E-6	0.000108	8.283539E-6	2.814437	57.570562	51.490133	77.237319	27.443261	0.894383	9.601250E-5	0.002880
0.000102	8.354366E-6	0.000118	8.511138E-6	3.076338	61.331072	51.877158	80.328948	26.111877	0.845854	0.000102	0.002965
0.000115	8.580890E-6	0.000129	8.740619E-6	3.362548	65.099469	52.123141	83.395220	24.801197	0.800669	0.000115	0.003045
0.000128	8.845959E-6	0.000141	8.971678E-6	3.675402	68.861482	52.230228	86.428586	23.515413	0.758482	0.000128	0.003139
0.000141	9.140986E-6	0.000155	9.204191E-6	4.017338	72.604230	52.202485	89.423004	22.259269	0.719001	0.000141	0.003244
0.000154	9.377111E-6	0.000169	9.437892E-6	4.391142	76.314288	52.044382	92.371469	21.035866	0.681974	0.000154	0.003328
0.000166	9.573559E-6	0.000185	9.672593E-6	4.799673	79.980627	51.762403	95.269339	19.849130	0.647187	0.000166	0.003397
0.000179	9.735336E-6	0.000202	9.908088E-6	5.246299	83.591564	51.362918	98.110646	18.700925	0.614451	0.000179	0.003455
0.000192	9.896546E-6	0.000221	1.014411E-5	5.734416	87.137231	50.854011	100.891166	17.593974	0.583608	0.000192	0.003512
0.000205	1.008785E-5	0.000241	1.038045E-5	6.267895	90.609808	50.244170	103.607982	16.529948	0.554511	0.000205	0.003580
0.000230	1.036052E-5	0.000264	1.061689E-5	6.851116	94.001072	49.541906	106.257244	15.509480	0.527036	0.000230	0.003677
0.000256	1.063009E-5	0.000288	1.085322E-5	7.488552	97.304582	48.756838	108.836625	14.533735	0.501074	0.000256	0.003772
0.000282	1.088102E-5	0.000315	1.108915E-5	8.185259	100.515408	47.898571	111.344601	13.603064	0.476530	0.000282	0.003861
0.000307	1.108406E-5	0.000344	1.132449E-5	8.946824	103.629821	46.976784	113.780306	12.717396	0.453313	0.000307	0.003934
0.000333	1.126642E-5	0.000376	1.155902E-5	9.779389	106.643770	46.001131	116.142145	11.876217	0.431353	0.000333	0.003998
0.000358	1.140661E-5	0.000411	1.179253E-5	10.689218	109.556049	44.981806	118.430954	11.079478	0.410583	0.000358	0.004048
0.000384	1.158757E-5	0.000450	1.202475E-5	11.683777	112.365452	43.928128	120.646903	10.326019	0.390940	0.000384	0.004112
0.000410	1.177757E-5	0.000491	1.225555E-5	12.770791	115.072254	42.849644	122.791350	9.615015	0.372372	0.000410	0.004180
0.000461	1.199932E-5	0.000537	1.248468E-5	13.958981	117.677596	41.755353	124.866032	8.945211	0.354828	0.000461	0.004258
0.000512	1.225293E-5	0.000587	1.271196E-5	15.257867	120.182663	40.653975	126.872449	8.315215	0.338268	0.000512	0.004348
0.000563	1.250879E-5	0.000642	1.293717E-5	16.677443	122.590349	39.554053	128.813497	7.723816	0.322652	0.000563	0.004439
0.000614	1.269679E-5	0.000702	1.316025E-5	18.229225	124.903329	38.463377	130.691518	7.169340	0.307945	0.000614	0.004506
0.000666	1.287432E-5	0.000767	1.338091E-5	19.925169	127.125746	37.389553	132.510128	6.650389	0.294115	0.000666	0.004569
0.000717	1.302198E-5	0.000838	1.359911E-5	21.779058	129.261671	36.339410	134.272604	6.165216	0.281131	0.000717	0.004621
0.000768	1.317295E-5	0.000916	1.381470E-5	23.805468	131.315751	35.319510	135.982698	5.712246	0.268966	0.000768	0.004675
0.000819	1.336354E-5	0.001001	1.402758E-5	26.020501	133.292712	34.335884	137.644106	5.289833	0.257598	0.000819	0.004742
0.000922	1.359590E-5	0.001094	1.423759E-5	28.441410	135.198013	33.394133	139.261161	4.896423	0.247002	0.000922	0.004825
0.001024	1.383944E-5	0.001196	1.444475E-5	31.087588	137.036968	32.499264	140.837967	4.530360	0.237157	0.001024	0.004911
0.001126	1.408136E-5	0.001308	1.464897E-5	33.979704	138.815834	31.655884	142.379531	4.190135	0.228042	0.001126	0.004997
0.001229	1.428941E-5	0.001429	1.485021E-5	37.141664	140.539832	30.868040	143.889820	3.874081	0.219639	0.001229	0.005071
0.001331	1.446091E-5	0.001562	1.504846E-5	40.597585	142.214632	30.139693	145.373321	3.580837	0.211931	0.001331	0.005132
0.001434	1.460149E-5	0.001708	1.524377E-5	44.374411	143.846789	29.474192	146.835372	3.309010	0.204900	0.001434	0.005182
0.001536	1.474019E-5	0.001867	1.543614E-5	48.503585	145.441588	28.874417	148.280098	3.057096	0.198529	0.001536	0.005231
0.001638	1.491039E-5	0.002040	1.562561E-5	53.016397	147.004883	28.343211	149.712301	2.823887	0.192805	0.001638	0.005291
0.001843	1.511578E-5	0.002230	1.581227E-5	57.948547	148.542763	27.882922	151.137056	2.608125	0.187710	0.001843	0.005364
0.002048	1.537123E-5	0.002438	1.599628E-5	63.340103	150.060950	27.495599	152.559158	2.408571	0.183230	0.002048	0.005455
0.002253	1.563454E-5	0.002664	1.617773E-5	69.234090	151.564457	27.183136	153.982816	2.224090	0.179350	0.002253	0.005548
0.002458	1.586391E-5	0.002912	1.635677E-5	75.675016	153.059317	26.947295	155.413356	2.053694	0.176058	0.002458	0.005630
0.002662	1.607128E-5	0.003183	1.653360E-5	82.716347	154.550528	26.789462	156.855160	1.896302	0.173338	0.002662	0.005703
0.002867	1.624147E-5	0.003479	1.670845E-5	90.412452	156.043436	26.711031	158.313086	1.751010	0.171177	0.002867	0.005764
0.003072	1.640717E-5	0.003803	1.688151E-5	98.825188	157.542726	26.713161	159.791437	1.616910	0.169561	0.003072	0.005823
0.003277	1.659054E-5	0.004157	1.705310E-5	108.019086	159.053728	26.797017	161.295283	1.493211	0.168478	0.003277	0.005888
0.003686	1.679480E-5	0.004544	1.722349E-5	118.069615	160.581094	26.963595	162.829123	1.379094	0.167913	0.003686	0.005960
0.004096	1.700050E-5	0.004966	1.739301E-5	129.055918	162.129094	27.213825	164.397188	1.273845	0.167853	0.004096	0.006033
0.004506	1.720663E-5	0.005428	1.756201E-5	141.062330	163.702547	27.548689	166.004380	1.176816	0.168285	0.004506	0.006106
0.004915	1.738435E-5	0.005934	1.773088E-5	154.186447	165.305725	27.969097	167.655161	1.087353	0.169196	0.004915	0.006169
0.005325	1.755189E-5	0.006486	1.789998E-5	168.531547	166.943134	28.476045	169.354348	1.004882	0.170573	0.005325	0.006229
0.005734	1.768367E-5	0.007089	1.806980E-5	184.213986	168.618473	29.070413	171.106044	0.928844	0.172403	0.005734	0.006276
0.006144	1.780484E-5	0.007749	1.824078E-5	201.353816	170.335900	29.753179	172.914923	0.858762	0.174674	0.006144	0.006319
0.006554	1.793947E-5	0.008470	1.841348E-5	220.087861	172.099481	30.525436	174.785679	0.794163	0.177371	0.006554	0.006366
0.007373	1.810497E-5	0.009258	1.858837E-5	240.565912	173.912928	31.388268	176.722749	0.734613	0.180483	0.007373	0.006425
0.008192	1.830405E-5	0.010119	1.876603E-5	262.948275	175.779964	32.342813	178.730672	0.679718	0.183996	0.008192	0.006496
0.009011	1.852639E-5	0.011060	1.894710E-5	287.410745	177.704788	33.390508	180.814595	0.629116	0.187899	0.009011	0.006575
0.009830	1.872339E-5	0.012090	1.913217E-5	314.153308	179.690683	34.532684	182.978818	0.582451	0.192178	0.009830	0.006645
0.010650	1.892176E-5	0.013214	1.932195E-5	343.381619	181.741515	35.770845	185.228323	0.539424	0.196823	0.010650	0.006715
0.011469	1.909357E-5	0.014444	1.951712E-5	375.329488	183.861114	37.106743	187.568173	0.499743	0.201819	0.011469	0.006776
0.012288	1.927926E-5	0.015788	1.971849E-5	410.252586	186.053072	38.542182	190.003277	0.463137	0.207157	0.012288	0.006842
0.013107	1.949546E-5	0.017257	1.992680E-5	448.426316	188.320651	40.078892	192.538269	0.429364	0.212823	0.013107	0.006919
0.014746	1.974797E-5	0.018862	2.014289E-5	490.144309	190.668135	41.719117	195.178950	0.398207	0.218805	0.014746	0.007008
0.016384	2.000576E-5	0.020617	2.036772E-5	535.746873	193.099367	43.465325	197.930797	0.369448	0.225093	0.016384	0.007100
0.018022	2.029640E-5	0.022536	2.060222E-5	585.597469	195.618015	45.319946	200.799166	0.342896	0.231676	0.018022	0.007203
0.019661	2.057071E-5	0.024632	2.084732E-5	640.087951	198.227655	47.285441	203.789392	0.318377	0.238541	0.019661	0.007300
0.021299	2.086895E-5	0.026924	2.110419E-5	699.641928	200.932499	49.364694	206.907569	0.295734	0.245678	0.021299	0.007406
0.022938	2.113561E-5	0.029429	2.137392E-5	764.735120	203.736844	51.560963	210.160021	0.274814	0.253076	0.022938	0.007501
0.024576	2.136746E-5	0.032167	2.165764E-5	835.888425	206.644838	53.877611	213.553005	0.255480	0.260726	0.024576	0.007583
0.026214	2.156673E-5	0.035160	2.195671E-5	913.664568	209.660141	56.317824	217.092312	0.237606	0.268615	0.026214	0.007654
0.029491	2.180013E-5	0.038431	2.227246E-5	998.659683	212.788667	58.886001	220.786272	0.221083	0.276735	0.029491	0.007736
0.032768	2.206279E-5	0.042007	2.260640E-5	1091.587826	216.033869	61.586016	224.640758	0.205793	0.285076	0.032768	0.007830
0.036045	2.236006E-5	0.045916	2.296003E-5	1193.152875	219.400872	64.422082	228.663393	0.191646	0.293627	0.036045	0.007935
0.039322	2.266137E-5	0.050188	2.333504E-5	1304.166697	222.894135	67.398638	232.861272	0.178552	0.302380	0.039322	0.008042
0.042598	2.296550E-5	0.054857	2.373317E-5	1425.489723	226.520416	70.521416	237.244113	0.166430	0.311325	0.042598	0.008150
0.045875	2.316980E-5	0.059961	2.415645E-5	1558.137752	230.283043	73.794985	241.818071	0.155197	0.320453	0.045875	0.008223
0.049152	2.341341E-5	0.065540	2.460685E-5	1703.088829	234.189381	77.225421	246.593657	0.144792	0.329756	0.049152	0.008309
0.052429	2.371634E-5	0.071638	2.508670E-5	1861.551604	238.244642	80.818847	251.579402	0.135145	0.339226	0.052429	0.008417
0.058982	2.408972E-5	0.078304	2.559831E-5	2034.760743	242.455206	84.581659	256.785093	0.126199	0.348855	0.058982	0.008549
0.065536	2.457839E-5	0.085589	2.614432E-5	2224.098199	246.826276	88.519987	262.219371	0.117899	0.358633	0.065536	0.008722
0.072090	2.514538E-5	0.093552	2.672762E-5	2431.008397	251.366445	92.641905	267.894778	0.110199	0.368553	0.072090	0.008924
0.078643	2.564062E-5	0.102256	2.735120E-5	2657.213712	256.081403	96.954833	273.820972	0.103048	0.378609	0.078643	0.009099
0.085197	2.621772E-5	0.111772	2.801862E-5	2904.450202	260.978436	101.466576	280.009303	0.096407	0.388793	0.085197	0.009304
0.091750	2.661362E-5	0.122171	2.873325E-5	3174.665937	266.065794	106.186170	286.472528	0.090237	0.399097	0.091750	0.009445
0.098304	2.693734E-5	0.133537	2.949915E-5	3470.029640	271.352047	111.123395	293.224048	0.084502	0.409517	0.098304	0.009560
0.104858	2.733624E-5	0.145962	3.032076E-5	3792.916551	276.844342	116.287419	300.275796	0.079168	0.420046	0.104858	0.009701
0.117965	2.789035E-5	0.159543	3.120286E-5	4145.813052	282.551809	121.688560	307.642049	0.074205	0.430677	0.117965	0.009898
0.131072	2.862847E-5	0.174386	3.215044E-5	4531.523739	288.483968	127.338196	315.337939	0.069588	0.441405	0.131072	0.010160
0.144179	2.958696E-5	0.190611	3.316952E-5	4953.122024	294.651124	133.248688	323.379804	0.065288	0.452225	0.144179	0.010500
0.157286	2.949559E-5	0.208348	3.426645E-5	5413.995957	301.062081	139.431891	331.782502	0.061282	0.463133	0.157286	0.010467
0.170394	3.087787E-5	0.227731	3.544786E-5	5917.707195	307.728007	145.901244	340.563796	0.057550	0.474124	0.170394	0.010958
0.183501	3.518158E-5	0.248921	3.672179E-5	6468.276439	314.660786	152.671693	349.742843	0.054070	0.485195	0.183501	0.012485
0.399815	4.304095E-5	0.272079	3.809638E-5	7070.133945	321.870276	159.757380	359.336743	0.050825	0.496341	0.399815	0.015274
0.599722	5.379721E-5	0.297394	3.958130E-5	7727.908222	329.371528	167.176147	369.369013	0.047797	0.507561	0.599722	0.019092
0.799630	6.618307E-5	0.325062	4.118681E-5	8447.053544	337.173258	174.943022	379.856376	0.044969	0.518852	0.799630	0.023487
0.999537	7.761091E-5	0.355311	4.292490E-5	9232.928627	345.292041	183.077850	390.824887	0.042329	0.530212	0.999537	0.027543
1.199445	8.905344E-5	0.388370	4.480784E-5	10092.033476	353.739435	191.599255	402.295739	0.039863	0.541640	1.199445	0.031604
1.399352	0.000100	0.424505	4.685016E-5	11030.969833	362.530621	200.528151	414.294569	0.037557	0.553134	1.399352	0.035656
1.599260	0.000113	0.464001	4.906778E-5	12057.215639	371.682899	209.888702	426.850612	0.035402	0.564698	1.599260	0.040060
1.799167	0.000127	0.507167	5.147826E-5	13179.150121	381.208060	219.702240	439.987113	0.033385	0.576332	1.799167	0.044919
1.999075	0.000138	0.554362	5.410246E-5	14405.221049	391.126971	229.996860	453.738761	0.031498	0.588036	1.999075	0.049028
2.198982	0.000152	0.605939	5.696161E-5	15745.622480	401.453794	240.798543	468.133621	0.029731	0.599816	2.198982	0.053787
2.398890	0.000166	0.662316	6.008117E-5	17210.648813	412.207921	252.137203	483.206519	0.028076	0.611675	2.398890	0.058805
2.598797	0.000178	0.723938	6.348911E-5	18812.066161	423.406445	264.043357	498.990894	0.026525	0.623617	2.598797	0.063306
2.798705	0.000191	0.791295	6.721721E-5	20562.356579	435.067692	276.549543	515.522595	0.025071	0.635647	2.798705	0.067859
2.998612	0.000205	0.864914	7.130059E-5	22475.177446	447.218070	289.697054	532.849308	0.023708	0.647776	2.998612	0.072904
3.198520	0.000219	0.945388	7.577993E-5	24566.630911	459.871899	303.520804	551.005482	0.022429	0.660012	3.198520	0.077680
3.398427	0.000235	1.033356	8.070071E-5	26852.345172	473.053767	318.063878	570.039031	0.021229	0.672363	3.398427	0.083480
3.598335	0.000248	1.129488	8.611256E-5	29350.789763	486.783186	333.369482	589.994137	0.020101	0.684842	3.598335	0.087919
3.798242	0.000262	1.234575	9.207534E-5	32081.244125	501.088762	349.490532	610.928457	0.019043	0.697462	3.798242	0.093143
3.998149	0.000276	1.349441	9.865435E-5	35066.266877	515.990097	366.476989	632.891115	0.018048	0.710240	3.998149	0.097947
4.198057	0.000293	1.475008	0.000106	38328.764314	531.513674	384.386439	655.941857	0.017114	0.723192	4.198057	0.103919
4.397964	0.000308	1.612233	0.000114	41894.829462	547.687567	403.283225	680.146330	0.016235	0.736338	4.397964	0.109259
4.597872	0.000321	1.762242	0.000123	45793.324506	564.530102	423.227332	705.560494	0.015407	0.749698	4.597872	0.113954
4.797779	0.000335	1.926216	0.000133	50053.436475	582.076410	444.297134	732.265587	0.014630	0.763297	4.797779	0.118851
4.997687	0.000352	2.105442	0.000144	54710.642052	600.350291	466.569452	760.333825	0.013897	0.777162	4.997687	0.124889
5.197594	0.000362	2.301335	0.000156	59801.226814	619.380746	490.129956	789.848012	0.013208	0.791323	5.197594	0.128583
5.397502	0.000380	2.515428	0.000170	65365.796123	639.190795	515.066225	820.888597	0.012558	0.805810	5.397502	0.134859
5.597409	0.000398	2.749495	0.000185	71447.082940	659.815488	541.484373	853.558319	0.011947	0.820660	5.597409	0.141115
5.797317	0.000409	3.005296	0.000202	78094.994200	681.275149	569.487100	887.947851	0.011370	0.835914	5.797317	0.145047
5.997224	0.000428	3.284913	0.000221	85360.053787	703.608198	599.202577	924.179758	0.010827	0.851614	5.997224	0.151896
6.197132	0.000444	3.590538	0.000243	93302.742176	726.834924	630.755465	962.362439	0.010314	0.867811	6.197132	0.157719
6.397039	0.000462	3.924658	0.000267	101984.054105	750.984506	664.288432	1002.624979	0.009831	0.884557	6.397039	0.163871
6.596947	0.000484	4.289758	0.000295	111473.192188	776.078550	699.951964	1045.098400	0.009375	0.901909	6.596947	0.171749
6.796854	0.000504	4.688880	0.000326	121843.584264	802.153940	737.928304	1089.949139	0.008945	0.919934	6.796854	0.178721
6.996762	0.000522	5.125201	0.000361	133181.222861	829.226091	778.397662	1137.329693	0.008540	0.938704	6.996762	0.185393
7.196669	0.000539	5.602075	0.000400	145572.499397	857.323288	821.569637	1187.425740	0.008157	0.958296	7.196669	0.191392
7.396577	0.000555	6.123209	0.000445	159115.430691	886.481878	867.689180	1240.457429	0.007796	0.978801	7.396577	0.196920
7.596484	0.000578	6.692966	0.000497	173919.558359	916.741666	917.033222	1296.674675	0.007456	1.000318	7.596484	0.205255
7.796391	0.000606	7.315713	0.000555	190102.843856	948.152115	969.918157	1356.367820	0.007135	1.022956	7.796391	0.215118
