MicroRheology Analysis v9.2.8
08/31/18 3:10:07 PM

Correlation Mode:	Cross
Geometry:	Transmission
Multi-Tau Duration (s):	120
Echo Duration (s):	60
Wavelength (nm):	685.0
Temperature (°C):	25.00
Cuvette Thickness (mm):	10.00
Absorption Length (mm):	Inf
Solvent:	Water
Solvent Refractive Index:	1.329
Particle Radius (nm):	465.0
Mean Count Rate (kHz):	157.3
l* (microns):	1107.38



Lag Time (s)	Mean Square Displacement (micron^2)	Fit Lag Time (s)	Mean Square Displacement Fit (micron^2)	Frequency(rad/s)	G1 (Pa)	G2 (Pa)	G* (Pa)	Complex Viscosity (Pa s)	Loss Tangent (-)	Time (s)	Creep Compliance (1/Pa)

1.121250E-5	3.465915E-6	1.121262E-5	3.263408E-6	0.079401	1.381330	5.172906	5.354160	67.431971	3.744873	1.121250E-5	0.001230
1.201250E-5	3.589799E-6	1.214722E-5	3.448676E-6	0.086021	1.394865	5.542694	5.715515	66.443603	3.973642	1.201250E-5	0.001274
1.281250E-5	3.725142E-6	1.315978E-5	3.637606E-6	0.093190	1.420723	5.940326	6.107858	65.541767	4.181200	1.281250E-5	0.001322
1.441250E-5	3.871961E-6	1.425686E-5	3.830016E-6	0.100958	1.460659	6.367997	6.533369	64.713542	4.359674	1.441250E-5	0.001374
1.601250E-5	3.969044E-6	1.544537E-5	4.025701E-6	0.109375	1.516636	6.827702	6.994119	63.946015	4.501872	1.601250E-5	0.001409
1.761250E-5	4.241859E-6	1.673290E-5	4.224474E-6	0.118493	1.590903	7.321602	7.492451	63.231191	4.602167	1.761250E-5	0.001505
1.921250E-5	4.353830E-6	1.812760E-5	4.426155E-6	0.128371	1.685916	7.851610	8.030573	62.557610	4.657179	1.921250E-5	0.001545
2.081250E-5	4.546390E-6	1.963876E-5	4.630631E-6	0.139070	1.804489	8.419982	8.611171	61.919774	4.666131	2.081250E-5	0.001613
2.241250E-5	4.693158E-6	2.127584E-5	4.837714E-6	0.150665	1.949582	9.028225	9.236326	61.303859	4.630852	2.241250E-5	0.001666
2.401250E-5	4.963832E-6	2.304932E-5	5.047261E-6	0.163223	2.124549	9.678251	9.908695	60.706476	4.555438	2.401250E-5	0.001762
2.561250E-5	5.295949E-6	2.497109E-5	5.259193E-6	0.176830	2.332948	10.371432	10.630581	60.117493	4.445634	2.561250E-5	0.001879
2.881250E-5	5.720466E-6	2.705255E-5	5.473279E-6	0.191571	2.578641	11.109086	11.404437	59.531260	4.308116	2.881250E-5	0.002030
3.201250E-5	5.977212E-6	2.930736E-5	5.689443E-6	0.207540	2.865735	11.892182	12.232597	58.940876	4.149784	3.201250E-5	0.002121
3.521250E-5	6.211031E-6	3.175085E-5	5.907649E-6	0.224841	3.198528	12.721250	13.117194	58.339906	3.977220	3.521250E-5	0.002204
3.841250E-5	6.391515E-6	3.439724E-5	6.127666E-6	0.243580	3.581658	13.596885	14.060710	57.725116	3.796254	3.841250E-5	0.002268
4.161250E-5	6.606228E-6	3.726491E-5	6.349516E-6	0.263886	4.019818	14.518774	15.064983	57.089022	3.611799	4.161250E-5	0.002344
4.481250E-5	6.787785E-6	4.037121E-5	6.573024E-6	0.285883	4.517944	15.486582	16.132143	56.429275	3.427794	4.481250E-5	0.002409
4.801250E-5	6.994475E-6	4.373616E-5	6.798120E-6	0.309717	5.080930	16.499016	17.263644	55.740034	3.247244	4.801250E-5	0.002482
5.121250E-5	7.214919E-6	4.738243E-5	7.024794E-6	0.335537	5.713712	17.554472	18.460932	55.019085	3.072341	5.121250E-5	0.002560
5.761250E-5	7.510361E-6	5.133253E-5	7.252909E-6	0.363506	6.421241	18.650848	19.725275	54.263918	2.904555	5.761250E-5	0.002665
6.401250E-5	7.845461E-6	5.561140E-5	7.482377E-6	0.393805	7.208425	19.785545	21.057759	53.472518	2.744780	6.401250E-5	0.002784
7.041250E-5	8.186984E-6	6.024692E-5	7.713153E-6	0.426631	8.080012	20.955343	22.459140	52.642994	2.593479	7.041250E-5	0.002905
7.681250E-5	8.503746E-6	6.526884E-5	7.945175E-6	0.462197	9.040356	22.156173	23.929564	51.773498	2.450808	7.681250E-5	0.003018
8.321250E-5	8.787618E-6	7.070994E-5	8.178399E-6	0.500727	10.093500	23.383533	25.468968	50.864011	2.316692	8.321250E-5	0.003119
8.961250E-5	9.002524E-6	7.660442E-5	8.412730E-6	0.542466	11.243192	24.632488	27.077091	49.914853	2.190880	8.961250E-5	0.003195
9.601250E-5	9.247800E-6	8.299003E-5	8.648103E-6	0.587685	12.492657	25.897443	28.753157	48.926115	2.073013	9.601250E-5	0.003282
0.000102	9.503426E-6	8.990825E-5	8.884474E-6	0.636676	13.844534	27.172307	30.495990	47.898745	1.962674	0.000102	0.003373
0.000115	9.776449E-6	9.740263E-5	9.121748E-6	0.689753	15.300585	28.450255	32.303636	46.833633	1.859423	0.000115	0.003469
0.000128	1.008410E-5	0.000106	9.359895E-6	0.747244	16.862397	29.724857	34.174662	45.734265	1.762789	0.000128	0.003579
0.000141	1.040953E-5	0.000114	9.598836E-6	0.809538	18.530300	30.988457	36.106183	44.601000	1.672313	0.000141	0.003694
0.000154	1.067040E-5	0.000124	9.838462E-6	0.877016	20.304357	32.234100	38.095986	43.438169	1.587546	0.000154	0.003787
0.000166	1.091283E-5	0.000134	1.007876E-5	0.950136	22.183098	33.453610	40.140177	42.246757	1.508068	0.000166	0.003873
0.000179	1.114118E-5	0.000145	1.031959E-5	1.029341	24.164517	34.639555	42.235324	41.031438	1.433488	0.000179	0.003954
0.000192	1.136121E-5	0.000157	1.056089E-5	1.115142	26.245922	35.784449	44.377643	39.795501	1.363429	0.000192	0.004032
0.000205	1.158624E-5	0.000171	1.080263E-5	1.208097	28.423598	36.880808	46.562806	38.542262	1.297542	0.000205	0.004112
0.000230	1.186734E-5	0.000185	1.104469E-5	1.308799	30.693374	37.921760	48.786710	37.275938	1.235503	0.000230	0.004212
0.000256	1.215403E-5	0.000200	1.128694E-5	1.417915	33.049346	38.899925	51.043740	35.999144	1.177026	0.000256	0.004313
0.000282	1.242122E-5	0.000217	1.152932E-5	1.536105	35.485617	39.809372	53.329309	34.717227	1.121845	0.000282	0.004408
0.000307	1.268417E-5	0.000235	1.177169E-5	1.664147	37.995719	40.644347	55.638455	33.433621	1.069709	0.000307	0.004501
0.000333	1.292277E-5	0.000255	1.201406E-5	1.802875	40.571923	41.399369	57.965409	32.151645	1.020395	0.000333	0.004586
0.000358	1.310744E-5	0.000276	1.225618E-5	1.953152	43.206816	42.070367	60.305428	30.875953	0.973697	0.000358	0.004652
0.000384	1.331523E-5	0.000299	1.249804E-5	2.115983	45.891755	42.653191	62.652597	29.609217	0.929430	0.000384	0.004725
0.000410	1.352706E-5	0.000324	1.273949E-5	2.292379	48.617625	43.144846	65.001163	28.355326	0.887432	0.000410	0.004801
0.000461	1.375879E-5	0.000351	1.298041E-5	2.483440	51.376421	43.543725	67.346809	27.118354	0.847543	0.000461	0.004883
0.000512	1.404997E-5	0.000380	1.322068E-5	2.690472	54.158691	43.847983	69.683638	25.900149	0.809620	0.000512	0.004986
0.000563	1.432691E-5	0.000412	1.346018E-5	2.914747	56.955324	44.057363	72.006668	24.704256	0.773542	0.000563	0.005084
0.000614	1.455885E-5	0.000446	1.369882E-5	3.157707	59.757853	44.172377	74.311506	23.533378	0.739190	0.000614	0.005167
0.000666	1.478490E-5	0.000483	1.393644E-5	3.420959	62.557107	44.193904	76.593034	22.389347	0.706457	0.000666	0.005247
0.000717	1.496480E-5	0.000523	1.417297E-5	3.706139	65.344342	44.124013	78.846760	21.274639	0.675254	0.000717	0.005311
0.000768	1.514776E-5	0.000567	1.440823E-5	4.015049	68.112057	43.965627	81.069283	20.191355	0.645490	0.000768	0.005376
0.000819	1.536980E-5	0.000614	1.464211E-5	4.349755	70.852179	43.721801	83.256394	19.140477	0.617085	0.000819	0.005454
0.000922	1.562107E-5	0.000665	1.487452E-5	4.712334	73.558112	43.396823	85.405387	18.123797	0.589967	0.000922	0.005544
0.001024	1.589976E-5	0.000721	1.510533E-5	5.105218	76.222279	42.994840	87.512240	17.141725	0.564072	0.001024	0.005643
0.001126	1.617682E-5	0.000781	1.533443E-5	5.530743	78.839262	42.521378	89.575091	16.195852	0.539343	0.001126	0.005741
0.001229	1.640173E-5	0.000846	1.556170E-5	5.991764	81.403895	41.981653	91.591775	15.286280	0.515720	0.001229	0.005821
0.001331	1.660164E-5	0.000917	1.578703E-5	6.491256	83.911391	41.381417	93.560372	14.413292	0.493156	0.001331	0.005892
0.001434	1.676521E-5	0.000993	1.601037E-5	7.032405	86.357681	40.726764	95.479414	13.577065	0.471606	0.001434	0.005950
0.001536	1.695374E-5	0.001076	1.623160E-5	7.618666	88.738966	40.023946	97.347421	12.777490	0.451030	0.001536	0.006017
0.001638	1.716644E-5	0.001166	1.645061E-5	8.253649	91.053427	39.279558	99.164561	12.014633	0.431390	0.001638	0.006092
0.001843	1.741935E-5	0.001263	1.666735E-5	8.941666	93.299118	38.499715	100.930439	11.287655	0.412648	0.001843	0.006182
0.002048	1.769634E-5	0.001368	1.688179E-5	9.687113	95.474224	37.690879	102.644678	10.596003	0.394775	0.002048	0.006280
0.002253	1.798169E-5	0.001482	1.709386E-5	10.494581	97.578438	36.859594	104.308107	9.939235	0.377743	0.002253	0.006381
0.002458	1.823262E-5	0.001606	1.730348E-5	11.369394	99.611920	36.011945	105.921644	9.316384	0.361522	0.002458	0.006470
0.002662	1.847529E-5	0.001739	1.751063E-5	12.317261	101.574822	35.153964	107.486026	8.726455	0.346089	0.002662	0.006557
0.002867	1.866346E-5	0.001884	1.771534E-5	13.344095	103.467864	34.291681	109.002377	8.168585	0.331423	0.002867	0.006623
0.003072	1.884451E-5	0.002041	1.791759E-5	14.456307	105.293342	33.430778	110.473095	7.641862	0.317501	0.003072	0.006688
0.003277	1.904503E-5	0.002212	1.811739E-5	15.661544	107.052355	32.576399	111.899189	7.144838	0.304303	0.003277	0.006759
0.003686	1.926456E-5	0.002396	1.831476E-5	16.966948	108.747730	31.733915	113.283318	6.676706	0.291812	0.003686	0.006837
0.004096	1.950244E-5	0.002596	1.850975E-5	18.381330	110.381966	30.907916	114.627561	6.236086	0.280009	0.004096	0.006921
0.004506	1.974033E-5	0.002812	1.870242E-5	19.913648	111.957671	30.102985	115.934075	5.821840	0.268878	0.004506	0.007006
0.004915	1.993167E-5	0.003047	1.889287E-5	21.573432	113.478418	29.323350	117.205845	5.432879	0.258405	0.004915	0.007073
0.005325	2.013012E-5	0.003300	1.908120E-5	23.371778	114.947646	28.572705	118.445602	5.067890	0.248571	0.005325	0.007144
0.005734	2.030309E-5	0.003576	1.926749E-5	25.320362	116.368321	27.854645	119.655620	4.725668	0.239366	0.005734	0.007205
0.006144	2.048721E-5	0.003874	1.945193E-5	27.430955	117.744357	27.172556	120.839073	4.405208	0.230776	0.006144	0.007271
0.006554	2.069494E-5	0.004197	1.963463E-5	29.717473	119.079756	26.529237	121.999134	4.105300	0.222785	0.006554	0.007344
0.007373	2.091736E-5	0.004546	1.981584E-5	32.195047	120.377899	25.927305	123.138392	3.824762	0.215383	0.007373	0.007423
0.008192	2.115135E-5	0.004925	1.999570E-5	34.878841	121.642703	25.369244	124.259993	3.562618	0.208555	0.008192	0.007506
0.009011	2.138175E-5	0.005336	2.017446E-5	37.786237	122.878003	24.857121	125.366982	3.317795	0.202291	0.009011	0.007588
0.009830	2.155706E-5	0.005781	2.035238E-5	40.935861	124.087907	24.392767	126.462705	3.089289	0.196577	0.009830	0.007650
0.010650	2.175749E-5	0.006263	2.052972E-5	44.348728	125.275707	23.977777	127.549741	2.876063	0.191400	0.010650	0.007721
0.011469	2.193793E-5	0.006785	2.070681E-5	48.045406	126.445379	23.613670	128.631408	2.677288	0.186750	0.011469	0.007785
0.012288	2.211384E-5	0.007350	2.088387E-5	52.050350	127.600658	23.301601	129.710803	2.492026	0.182613	0.012288	0.007848
0.013107	2.228019E-5	0.007963	2.106137E-5	56.389578	128.744815	23.042611	130.790631	2.319411	0.178979	0.013107	0.007907
0.014746	2.242123E-5	0.008627	2.123959E-5	61.089788	129.881698	22.837639	131.874232	2.158695	0.175834	0.014746	0.007957
0.016384	2.257322E-5	0.009346	2.141900E-5	66.182612	131.014391	22.687362	132.964232	2.009051	0.173167	0.016384	0.008011
0.018022	2.278694E-5	0.010125	2.159996E-5	71.699375	132.146305	22.592445	134.063658	1.869802	0.170965	0.018022	0.008087
0.019661	2.303287E-5	0.010969	2.178293E-5	77.675982	133.280623	22.553372	135.175364	1.740247	0.169217	0.019661	0.008174
0.021299	2.331846E-5	0.011883	2.196845E-5	84.150704	134.420667	22.570577	136.302409	1.619742	0.167910	0.021299	0.008275
0.022938	2.355417E-5	0.012874	2.215696E-5	91.166533	135.568936	22.644328	137.447088	1.507649	0.167032	0.022938	0.008359
0.024576	2.380562E-5	0.013947	2.234901E-5	98.765419	136.728659	22.774948	138.612498	1.403452	0.166570	0.024576	0.008448
0.026214	2.409879E-5	0.015110	2.254519E-5	106.998235	137.902710	22.962646	139.801432	1.306577	0.166513	0.026214	0.008552
0.029491	2.446512E-5	0.016369	2.274612E-5	115.918542	139.093424	23.207533	141.016205	1.216511	0.166849	0.029491	0.008682
0.032768	2.487135E-5	0.017734	2.295237E-5	125.580710	140.303835	23.509818	142.259895	1.132816	0.167564	0.032768	0.008826
0.036045	2.525100E-5	0.019212	2.316468E-5	136.050211	141.535940	23.869520	143.534583	1.055012	0.168646	0.036045	0.008961
0.039322	2.560253E-5	0.020814	2.338370E-5	147.389368	142.792957	24.286895	144.843646	0.982728	0.170085	0.039322	0.009086
0.042598	2.598876E-5	0.022549	2.361018E-5	159.678274	144.076541	24.761942	146.188931	0.915522	0.171867	0.042598	0.009223
0.045875	2.628280E-5	0.024428	2.384497E-5	172.988579	145.389386	25.294811	147.573375	0.853082	0.173980	0.045875	0.009327
0.049152	2.660795E-5	0.026465	2.408879E-5	187.409435	146.733540	25.885621	148.999319	0.795047	0.176412	0.049152	0.009443
0.052429	2.694851E-5	0.028671	2.434256E-5	203.030815	148.111419	26.534574	150.469519	0.741117	0.179153	0.052429	0.009564
0.058982	2.734085E-5	0.031061	2.460722E-5	219.955219	149.525243	27.241929	151.986582	0.690989	0.182190	0.058982	0.009703
0.065536	2.791733E-5	0.033650	2.488374E-5	238.291996	150.976772	28.007817	153.552673	0.644389	0.185511	0.065536	0.009907
0.072090	2.856825E-5	0.036455	2.517307E-5	258.153313	152.468679	28.832676	155.170942	0.601081	0.189106	0.072090	0.010138
0.078643	2.918054E-5	0.039494	2.547634E-5	279.674430	154.002620	29.716821	156.843542	0.560808	0.192963	0.078643	0.010356
0.085197	2.983828E-5	0.042787	2.579474E-5	302.986895	155.581027	30.660739	158.573443	0.523367	0.197072	0.085197	0.010589
0.091750	3.024522E-5	0.046353	2.612937E-5	328.245516	157.205717	31.664914	160.363039	0.488546	0.201423	0.091750	0.010734
0.098304	3.066444E-5	0.050217	2.648152E-5	355.607943	158.878857	32.729923	162.215101	0.456163	0.206006	0.098304	0.010882
0.104858	3.123017E-5	0.054403	2.685263E-5	385.250646	160.602657	33.856528	164.132501	0.426041	0.210809	0.104858	0.011083
0.117965	3.197427E-5	0.058938	2.724409E-5	417.365720	162.379079	35.045490	166.117885	0.398015	0.215825	0.117965	0.011347
0.131072	3.290016E-5	0.063851	2.765737E-5	452.155967	164.210572	36.297827	168.174445	0.371939	0.221044	0.131072	0.011676
0.144179	3.396665E-5	0.069174	2.809425E-5	489.850672	166.099033	37.614531	170.304849	0.347667	0.226458	0.144179	0.012054
0.157286	3.398801E-5	0.074940	2.855624E-5	530.685882	168.046669	38.996699	172.512102	0.325074	0.232059	0.157286	0.012062
0.170394	3.553782E-5	0.081187	2.904539E-5	574.922564	170.055667	40.445606	174.799247	0.304040	0.237837	0.170394	0.012612
0.183501	3.956772E-5	0.087955	2.956362E-5	622.841858	172.128755	41.962912	177.169959	0.284454	0.243788	0.183501	0.014042
0.399815	4.695002E-5	0.095287	3.011291E-5	674.761030	174.268338	43.550403	179.627646	0.266209	0.249904	0.399815	0.016662
0.599723	5.681105E-5	0.103230	3.069557E-5	731.015050	176.476471	45.209743	182.175370	0.249209	0.256180	0.599723	0.020161
0.799631	6.790156E-5	0.111836	3.131411E-5	791.954600	178.755544	46.942809	184.816589	0.233368	0.262609	0.799631	0.024097
0.999539	7.810581E-5	0.121159	3.197096E-5	857.965719	181.108526	48.752020	187.555479	0.218605	0.269187	0.999539	0.027718
1.199446	8.785043E-5	0.131257	3.266885E-5	929.482403	183.538214	50.640058	190.396143	0.204841	0.275910	1.199446	0.031177
1.399354	9.733593E-5	0.142199	3.341102E-5	1006.968719	186.047090	52.609588	193.342412	0.192004	0.282776	1.399354	0.034543
1.599262	0.000107	0.154053	3.420052E-5	1090.913812	188.637741	54.663443	196.398292	0.180031	0.289780	1.599262	0.038007
1.799170	0.000117	0.166896	3.504076E-5	1181.846257	191.313548	56.805139	199.568778	0.168862	0.296922	1.799170	0.041436
1.999077	0.000126	0.180808	3.593540E-5	1280.364220	194.077521	59.038467	202.858633	0.158438	0.304200	1.999077	0.044838
2.198985	0.000136	0.195878	3.688846E-5	1387.100472	196.932542	61.367330	206.272576	0.148708	0.311616	2.198985	0.048205
2.398893	0.000146	0.212209	3.790458E-5	1502.729949	199.882067	63.796218	209.816106	0.139623	0.319169	2.398893	0.051807
2.598800	0.000154	0.229898	3.898795E-5	1628.002608	202.929054	66.329827	213.494372	0.131139	0.326862	2.598800	0.054782
2.798708	0.000165	0.249063	4.014391E-5	1763.705387	206.077327	68.973590	217.313646	0.123214	0.334698	2.798708	0.058597
2.998616	0.000175	0.269823	4.137768E-5	1910.723123	209.330764	71.733628	221.280551	0.115810	0.342681	2.998616	0.062031
3.198524	0.000185	0.292316	4.269547E-5	2070.015786	212.692177	74.615911	225.400746	0.108888	0.350816	3.198524	0.065631
3.398431	0.000195	0.316686	4.410363E-5	2242.563762	216.166181	77.627694	229.682121	0.102419	0.359111	3.398431	0.069092
3.598339	0.000204	0.343083	4.560879E-5	2429.512091	219.755890	80.776369	234.131316	0.096370	0.367573	3.598339	0.072398
3.798247	0.000214	0.371682	4.721874E-5	2632.020241	223.465908	84.070469	238.756897	0.090712	0.376212	3.798247	0.076032
3.998155	0.000224	0.402667	4.894171E-5	2851.415424	227.300408	87.519356	243.567471	0.085420	0.385038	3.998155	0.079607
4.198062	0.000233	0.436228	5.078603E-5	3089.111345	231.263574	91.133078	248.572079	0.080467	0.394066	4.198062	0.082589
4.397970	0.000243	0.472594	5.276210E-5	3346.632913	235.359603	94.922546	253.780284	0.075832	0.403309	4.397970	0.086342
4.597878	0.000252	0.511993	5.488013E-5	3625.626233	239.592005	98.899164	259.201415	0.071491	0.412782	4.597878	0.089300
4.797785	0.000260	0.554670	5.715098E-5	3927.819235	243.967491	103.077341	264.849155	0.067429	0.422504	4.797785	0.092385
4.997693	0.000271	0.600909	5.958763E-5	4255.304292	248.487620	107.470120	270.732200	0.063622	0.432497	4.997693	0.096122
5.197601	0.000281	0.650997	6.220298E-5	4609.985201	253.158853	112.093776	276.865345	0.060058	0.442780	5.197601	0.099723
5.397509	0.000291	0.705261	6.501184E-5	4994.261435	257.985284	116.965775	283.262068	0.056718	0.453382	5.397509	0.103258
5.597416	0.000303	0.764059	6.803070E-5	5410.581852	262.971643	122.105129	289.937488	0.053587	0.464328	5.597416	0.107545
5.797324	0.000311	0.827748	7.127567E-5	5861.643341	268.121826	127.532267	296.907044	0.050653	0.475650	5.797324	0.110209
5.997232	0.000322	0.896747	7.476609E-5	6350.308591	273.439026	133.268916	304.186629	0.047901	0.487381	5.997232	0.114403
6.197139	0.000332	0.971496	7.852220E-5	6879.616880	278.928383	139.340383	311.796063	0.045322	0.499556	6.197139	0.117769
6.397047	0.000340	1.052481	8.256645E-5	7453.061097	284.594069	145.774562	319.756168	0.042903	0.512219	6.397047	0.120629
6.596955	0.000350	1.140230	8.692331E-5	8074.392639	290.437544	152.599970	328.086449	0.040633	0.525414	6.596955	0.124251
6.796863	0.000358	1.235273	9.161728E-5	8747.431821	296.463234	159.849989	336.812215	0.038504	0.539190	6.796863	0.127126
6.996770	0.000373	1.338251	9.667814E-5	9476.667031	302.671792	167.559699	345.957319	0.036506	0.553602	6.996770	0.132215
7.196678	0.000380	1.449794	0.000102	10266.662915	309.064107	175.767500	355.548641	0.034631	0.568709	7.196678	0.134679
7.396586	0.000387	1.570657	0.000108	11122.449240	315.641195	184.516868	365.617065	0.032872	0.584578	7.396586	0.137255
7.596494	0.000397	1.701591	0.000114	12049.640649	322.400609	193.853971	376.193454	0.031220	0.601283	7.596494	0.141056
7.796401	0.000404	1.843435	0.000121	13054.076485	329.340035	203.830294	387.313371	0.029670	0.618905	7.796401	0.143531
7.996309	0.000413	1.997097	0.000129	14142.283517	336.454261	214.501999	399.014507	0.028214	0.637537	7.996309	0.146406
8.196217	0.000419	2.163579	0.000137	15321.247103	343.734565	225.929151	411.336155	0.026847	0.657278	8.196217	0.148863
8.396124	0.000427	2.343945	0.000145	16598.359482	351.171460	238.179217	424.323855	0.025564	0.678242	8.396124	0.151638
8.596032	0.000436	2.539326	0.000155	17981.923352	358.750826	251.325803	438.026043	0.024359	0.700558	8.596032	0.154744
8.795940	0.000443	2.750984	0.000165	19480.824915	366.455435	265.450368	452.496943	0.023228	0.724373	8.795940	0.157335
8.995848	0.000455	2.980298	0.000176	21104.869714	374.260960	280.640145	467.792858	0.022165	0.749852	8.995848	0.161416
9.195755	0.000460	3.228753	0.000187	22864.378133	382.135359	296.987052	483.971840	0.021167	0.777178	9.195755	0.163166
9.395663	0.000463	3.497940	0.000200	24770.126576	390.045843	314.598199	501.106562	0.020230	0.806567	9.395663	0.164169
9.595571	0.000476	3.789518	0.000214	26834.893875	397.947273	333.589383	519.272480	0.019351	0.838275	9.595571	0.168965
9.795479	0.000486	4.105420	0.000229	29072.099139	405.780085	354.078551	538.543497	0.018524	0.872587	9.795479	0.172526
9.995386	0.000494	4.447590	0.000245	31495.219456	413.484788	376.207563	559.018604	0.017749	0.909846	9.995386	0.175401
10.195294	0.000501	4.818345	0.000262	34121.120061	420.971795	400.113910	580.782569	0.017021	0.950453	10.195294	0.177652
10.395202	0.000506	5.220009	0.000280	36965.093656	428.150905	425.959374	603.949158	0.016338	0.994881	10.395202	0.179689
10.595109	0.000516	5.655147	0.000300	40046.304783	434.907804	453.921933	628.641328	0.015698	1.043720	10.595109	0.183256
10.795017	0.000530	6.126586	0.000322	43385.233883	441.098666	484.177485	654.977763	0.015097	1.097663	10.795017	0.188191
10.994925	0.000527	6.637256	0.000345	47001.675628	446.569346	516.932250	683.112825	0.014534	1.157563	10.994925	0.186897
11.194833	0.000536	7.190633	0.000369	50919.704151	451.132119	552.411257	713.216927	0.014007	1.224500	11.194833	0.190044
11.394740	0.000545	7.789931	0.000396	55164.511279	454.571103	590.859243	745.486105	0.013514	1.299817	11.394740	0.193338
11.594648	0.000547	8.439320	0.000424	59762.515988	456.651036	632.573751	780.179287	0.013055	1.385245	11.594648	0.193955
11.794556	0.000555	9.142826	0.000455	64744.311167	457.106770	677.911384	817.624879	0.012629	1.483048	11.794556	0.197091
11.994464	0.000554	9.905081	0.000487	70141.693379	455.662931	727.337882	858.282647	0.012236	1.596219	11.994464	0.196571
12.194371	0.000560	10.730729	0.000521	75989.090117	452.046899	781.509100	902.830479	0.011881	1.728823	12.194371	0.198667
12.394279	0.000565	11.625130	0.000558	82323.330667	446.012253	841.419664	952.320314	0.011568	1.886539	12.394279	0.200628
