MicroRheology Analysis v9.2.8
09/01/18 9:33:05 PM

Correlation Mode:	Cross
Geometry:	Transmission
Multi-Tau Duration (s):	120
Echo Duration (s):	60
Wavelength (nm):	685.0
Temperature (°C):	25.00
Cuvette Thickness (mm):	10.00
Absorption Length (mm):	Inf
Solvent:	Water
Solvent Refractive Index:	1.329
Particle Radius (nm):	465.0
Mean Count Rate (kHz):	158.1
l* (microns):	1077.80



Lag Time (s)	Mean Square Displacement (micron^2)	Fit Lag Time (s)	Mean Square Displacement Fit (micron^2)	Frequency(rad/s)	G1 (Pa)	G2 (Pa)	G* (Pa)	Complex Viscosity (Pa s)	Loss Tangent (-)	Time (s)	Creep Compliance (1/Pa)

5.212500E-6	1.517388E-6	5.212557E-6	1.521141E-6	0.079400	0.898043	5.318865	5.394146	67.935971	5.922727	5.212500E-6	0.000538
5.612500E-6	1.633869E-6	5.648458E-6	1.625542E-6	0.086041	0.934479	5.717863	5.793721	67.336416	6.118774	5.612500E-6	0.000580
6.012500E-6	1.756976E-6	6.120841E-6	1.734154E-6	0.093237	0.983837	6.148211	6.226430	66.780641	6.249220	6.012500E-6	0.000624
6.412500E-6	1.886684E-6	6.632671E-6	1.846969E-6	0.101033	1.048109	6.612180	6.694733	66.262686	6.308678	6.412500E-6	0.000670
7.212500E-6	1.991943E-6	7.187397E-6	1.964025E-6	0.109484	1.129448	7.111553	7.200683	65.769204	6.296484	7.212500E-6	0.000707
8.012500E-6	2.120649E-6	7.788533E-6	2.085308E-6	0.118639	1.230312	7.648469	7.746789	65.296977	6.216688	8.012500E-6	0.000753
8.812500E-6	2.331041E-6	8.439882E-6	2.210802E-6	0.128560	1.353418	8.225010	8.335618	64.838356	6.077212	8.812500E-6	0.000827
9.612500E-6	2.400521E-6	9.145569E-6	2.340485E-6	0.139312	1.501709	8.842942	8.969546	64.384470	5.888587	9.612500E-6	0.000852
1.041250E-5	2.562801E-6	9.910418E-6	2.474397E-6	0.150963	1.678396	9.503989	9.651053	63.929821	5.662544	1.041250E-5	0.000909
1.121250E-5	2.653404E-6	1.073927E-5	2.612503E-6	0.163587	1.886995	10.209885	10.382798	63.469500	5.410657	1.121250E-5	0.000942
1.201250E-5	2.807356E-6	1.163731E-5	2.754757E-6	0.177268	2.131258	10.961993	11.167253	62.996537	5.143438	1.201250E-5	0.000996
1.281250E-5	2.937558E-6	1.261066E-5	2.901184E-6	0.192092	2.415231	11.761652	12.007073	62.506952	4.869783	1.281250E-5	0.001042
1.441250E-5	3.105951E-6	1.366528E-5	3.051707E-6	0.208158	2.743136	12.609617	12.904543	61.994045	4.596788	1.441250E-5	0.001102
1.601250E-5	3.225551E-6	1.480788E-5	3.206285E-6	0.225566	3.119435	13.506522	13.862071	61.454677	4.329798	1.601250E-5	0.001145
1.761250E-5	3.393696E-6	1.604631E-5	3.364944E-6	0.244428	3.548875	14.452858	14.882191	60.885755	4.072518	1.761250E-5	0.001204
1.921250E-5	3.515685E-6	1.738814E-5	3.527585E-6	0.264871	4.036233	15.448235	15.966814	60.281385	3.827390	1.921250E-5	0.001248
2.081250E-5	3.655125E-6	1.884253E-5	3.694226E-6	0.287022	4.586414	16.492058	17.117919	59.639780	3.595850	2.081250E-5	0.001297
2.241250E-5	3.801522E-6	2.041833E-5	3.864751E-6	0.311021	5.204584	17.583623	18.337707	58.959678	3.378488	2.241250E-5	0.001349
2.401250E-5	4.029218E-6	2.212575E-5	4.039113E-6	0.337032	5.895794	18.721228	19.627653	58.236808	3.175353	2.401250E-5	0.001430
2.561250E-5	4.346235E-6	2.397603E-5	4.217276E-6	0.365218	6.665082	19.902851	20.989207	57.470392	2.986137	2.561250E-5	0.001542
2.881250E-5	4.693162E-6	2.598108E-5	4.399172E-6	0.395762	7.517306	21.125689	22.423305	56.658555	2.810274	2.881250E-5	0.001666
3.201250E-5	4.982759E-6	2.815395E-5	4.584741E-6	0.428857	8.457471	22.387038	23.931324	55.802625	2.647013	3.201250E-5	0.001768
3.521250E-5	5.188108E-6	3.050857E-5	4.773898E-6	0.464728	9.489934	23.682601	25.513221	54.899286	2.495549	3.521250E-5	0.001841
3.841250E-5	5.355047E-6	3.305989E-5	4.966545E-6	0.503592	10.618981	25.008319	27.169445	53.951270	2.355058	3.841250E-5	0.001900
4.161250E-5	5.541008E-6	3.582473E-5	5.162624E-6	0.545707	11.848528	26.359305	28.899836	52.958497	2.224690	4.161250E-5	0.001966
4.481250E-5	5.756010E-6	3.882019E-5	5.361995E-6	0.591344	13.181816	27.729899	30.703543	51.921628	2.103648	4.481250E-5	0.002043
4.801250E-5	5.976993E-6	4.206682E-5	5.564641E-6	0.640788	14.622202	29.114928	32.580482	50.844439	1.991145	4.801250E-5	0.002121
5.121250E-5	6.200516E-6	4.558541E-5	5.770446E-6	0.694381	16.171761	30.507406	34.528650	49.725789	1.886462	5.121250E-5	0.002200
5.761250E-5	6.471428E-6	4.939755E-5	5.979235E-6	0.752451	17.832187	31.900820	36.546535	48.570004	1.788946	5.761250E-5	0.002297
6.401250E-5	6.787150E-6	5.352814E-5	6.190919E-6	0.815378	19.604441	33.287991	38.631910	47.379171	1.697982	6.401250E-5	0.002409
7.041250E-5	7.112884E-6	5.800444E-5	6.405408E-6	0.883565	21.488975	34.661822	40.782569	46.156866	1.613005	7.041250E-5	0.002524
7.681250E-5	7.401773E-6	6.285518E-5	6.622569E-6	0.957464	23.484802	36.014207	42.994872	44.904959	1.533511	7.681250E-5	0.002627
8.321250E-5	7.658424E-6	6.811157E-5	6.842265E-6	1.037527	25.590992	37.338152	45.266284	43.629023	1.459035	8.321250E-5	0.002718
8.961250E-5	7.840871E-6	7.380787E-5	7.064372E-6	1.124300	27.805147	38.625531	47.592624	42.330884	1.389150	8.961250E-5	0.002783
9.601250E-5	8.048836E-6	7.998088E-5	7.288747E-6	1.218326	30.123984	39.868688	49.969657	41.015025	1.323487	9.601250E-5	0.002856
0.000102	8.278528E-6	8.666976E-5	7.515216E-6	1.320201	32.543957	41.060517	52.393465	39.685982	1.261694	0.000102	0.002938
0.000115	8.533342E-6	9.391795E-5	7.743636E-6	1.430603	35.060826	42.193987	54.859767	38.347313	1.203451	0.000115	0.003028
0.000128	8.825342E-6	0.000102	7.973855E-6	1.550265	37.668235	43.261447	57.362432	37.001706	1.148486	0.000128	0.003132
0.000141	9.129676E-6	0.000110	8.205679E-6	1.679898	40.360465	44.257204	59.897139	35.655215	1.096548	0.000141	0.003240
0.000154	9.373199E-6	0.000120	8.438991E-6	1.820382	43.130979	45.175272	62.458678	34.310752	1.047397	0.000154	0.003326
0.000166	9.586455E-6	0.000129	8.673562E-6	1.972631	45.971668	46.009883	65.040784	32.971586	1.000831	0.000166	0.003402
0.000179	9.785392E-6	0.000140	8.909275E-6	2.137579	48.875106	46.756941	67.638654	31.642643	0.956662	0.000179	0.003473
0.000192	9.995557E-6	0.000152	9.145914E-6	2.316337	51.833371	47.412453	70.246986	30.326754	0.914709	0.000192	0.003547
0.000205	1.022940E-5	0.000165	9.383277E-6	2.510086	54.836606	47.972537	72.858889	29.026447	0.874827	0.000205	0.003630
0.000230	1.049451E-5	0.000179	9.621233E-6	2.719981	57.876378	48.435454	75.469651	27.746388	0.836878	0.000230	0.003724
0.000256	1.076176E-5	0.000193	9.859534E-6	2.947440	60.943913	48.799434	78.073973	26.488743	0.800727	0.000256	0.003819
0.000282	1.101640E-5	0.000210	1.009801E-5	3.193951	64.029368	49.063327	80.665792	25.255801	0.766263	0.000282	0.003910
0.000307	1.124517E-5	0.000227	1.033644E-5	3.461039	67.124115	49.227550	83.240606	24.050753	0.733381	0.000307	0.003991
0.000333	1.146852E-5	0.000246	1.057468E-5	3.750497	70.219019	49.292601	85.793188	22.875153	0.701984	0.000333	0.004070
0.000358	1.164650E-5	0.000267	1.081251E-5	4.064169	73.304950	49.260017	88.318543	21.731023	0.671988	0.000358	0.004133
0.000384	1.183372E-5	0.000289	1.104976E-5	4.404045	76.373449	49.132201	90.812317	20.620209	0.643315	0.000384	0.004200
0.000410	1.203867E-5	0.000313	1.128622E-5	4.772324	79.416538	48.912144	93.270491	19.544039	0.615894	0.000410	0.004272
0.000461	1.227843E-5	0.000339	1.152167E-5	5.171399	82.426995	48.603520	95.689663	18.503632	0.589655	0.000461	0.004357
0.000512	1.253444E-5	0.000368	1.175598E-5	5.603915	85.397205	48.210296	98.065872	17.499529	0.564542	0.000512	0.004448
0.000563	1.279490E-5	0.000399	1.198895E-5	6.072583	88.320106	47.737329	100.395686	16.532618	0.540504	0.000563	0.004541
0.000614	1.301071E-5	0.000432	1.222037E-5	6.580344	91.190744	47.190114	102.677450	15.603661	0.517488	0.000614	0.004617
0.000666	1.321002E-5	0.000468	1.245009E-5	7.130688	94.003311	46.573813	104.908258	14.712220	0.495449	0.000666	0.004688
0.000717	1.337604E-5	0.000507	1.267797E-5	7.727048	96.752723	45.894540	107.085939	13.858583	0.474349	0.000717	0.004747
0.000768	1.354289E-5	0.000550	1.290380E-5	8.373186	99.435495	45.158646	109.209528	13.042768	0.454150	0.000768	0.004806
0.000819	1.373348E-5	0.000596	1.312748E-5	9.073410	102.048253	44.372320	111.277800	12.264165	0.434817	0.000819	0.004874
0.000922	1.396132E-5	0.000645	1.334878E-5	9.832211	104.588497	43.542126	113.290204	11.522353	0.416318	0.000922	0.004955
0.001024	1.422480E-5	0.000699	1.356765E-5	10.654546	107.053625	42.674584	115.245819	10.816586	0.398628	0.001024	0.005048
0.001126	1.448546E-5	0.000758	1.378399E-5	11.545489	109.443046	41.776527	117.145458	10.146427	0.381719	0.001126	0.005141
0.001229	1.469941E-5	0.000821	1.399759E-5	12.511091	111.755711	40.854227	118.989103	9.510689	0.365567	0.001229	0.005217
0.001331	1.489116E-5	0.000890	1.420842E-5	13.557412	113.991581	39.914306	120.777615	8.908604	0.350151	0.001331	0.005285
0.001434	1.504932E-5	0.000964	1.441635E-5	14.691247	116.151056	38.963062	122.511991	8.339115	0.335452	0.001434	0.005341
0.001536	1.521982E-5	0.001045	1.462133E-5	15.919862	118.235019	38.006689	124.193511	7.801168	0.321450	0.001536	0.005401
0.001638	1.542345E-5	0.001133	1.482327E-5	17.251098	120.245490	37.051134	125.824340	7.293700	0.308129	0.001638	0.005474
0.001843	1.566309E-5	0.001227	1.502216E-5	18.693909	122.183877	36.101964	127.405854	6.815367	0.295472	0.001843	0.005559
0.002048	1.592051E-5	0.001330	1.521799E-5	20.257196	124.052845	35.164814	128.940578	6.365174	0.283466	0.002048	0.005650
0.002253	1.618711E-5	0.001441	1.541067E-5	21.951331	125.854886	34.244759	130.430655	5.941811	0.272097	0.002253	0.005745
0.002458	1.641576E-5	0.001562	1.560020E-5	23.787021	127.593098	33.346779	131.878756	5.544148	0.261353	0.002458	0.005826
0.002662	1.662858E-5	0.001692	1.578670E-5	25.776177	129.271072	32.475414	133.287893	5.170972	0.251220	0.002662	0.005901
0.002867	1.679939E-5	0.001834	1.597007E-5	27.931973	130.891813	31.634944	134.660449	4.821015	0.241688	0.002867	0.005962
0.003072	1.697529E-5	0.001987	1.615044E-5	30.267608	132.459696	30.829496	136.000107	4.493256	0.232746	0.003072	0.006024
0.003277	1.717503E-5	0.002153	1.632788E-5	32.799079	133.978119	30.062631	137.309498	4.186383	0.224385	0.003277	0.006095
0.003686	1.740251E-5	0.002333	1.650246E-5	35.541899	135.451290	29.337944	138.592088	3.899400	0.216594	0.003686	0.006176
0.004096	1.763548E-5	0.002528	1.667428E-5	38.514062	136.883385	28.658519	139.851249	3.631174	0.209364	0.004096	0.006259
0.004506	1.785706E-5	0.002740	1.684344E-5	41.734824	138.278673	28.027234	141.090458	3.380641	0.202687	0.004506	0.006337
0.004915	1.802686E-5	0.002969	1.701012E-5	45.225163	139.641273	27.446729	142.313063	3.146767	0.196552	0.004915	0.006397
0.005325	1.820105E-5	0.003217	1.717445E-5	49.007351	140.975570	26.919436	143.522707	2.928596	0.190951	0.005325	0.006459
0.005734	1.835105E-5	0.003486	1.733663E-5	53.106209	142.285474	26.447536	144.722591	2.725154	0.185877	0.005734	0.006512
0.006144	1.851201E-5	0.003778	1.749688E-5	57.547159	143.575612	26.033070	145.916679	2.535602	0.181320	0.006144	0.006570
0.006554	1.869820E-5	0.004094	1.765537E-5	62.360222	144.849765	25.677761	147.108130	2.359006	0.177272	0.006554	0.006636
0.007373	1.891079E-5	0.004436	1.781238E-5	67.575013	146.112270	25.383318	148.300736	2.194609	0.173725	0.007373	0.006711
0.008192	1.913866E-5	0.004807	1.796815E-5	73.225988	147.367333	25.151180	149.498203	2.041600	0.170670	0.008192	0.006792
0.009011	1.937600E-5	0.005209	1.812295E-5	79.350381	148.618612	24.982683	150.703770	1.899219	0.168099	0.009011	0.006876
0.009830	1.956191E-5	0.005645	1.827708E-5	85.986201	149.870084	24.879112	151.921073	1.766808	0.166005	0.009830	0.006942
0.010650	1.974451E-5	0.006117	1.843087E-5	93.176579	151.125810	24.841614	153.153897	1.643695	0.164377	0.010650	0.007007
0.011469	1.989920E-5	0.006628	1.858467E-5	100.969449	152.389185	24.871213	154.405443	1.529229	0.163209	0.011469	0.007062
0.012288	2.005943E-5	0.007183	1.873880E-5	109.413127	153.663867	24.968937	155.679260	1.422857	0.162491	0.012288	0.007119
0.013107	2.022322E-5	0.007784	1.889367E-5	118.562145	154.953572	25.135758	156.979030	1.324023	0.162215	0.013107	0.007177
0.014746	2.037372E-5	0.008434	1.904965E-5	128.476825	156.261785	25.372615	158.308292	1.232193	0.162372	0.014746	0.007230
0.016384	2.053219E-5	0.009140	1.920718E-5	139.221628	157.591679	25.680404	159.670349	1.146879	0.162955	0.016384	0.007287
0.018022	2.073120E-5	0.009904	1.936672E-5	150.864370	158.946747	26.060083	161.068918	1.067641	0.163955	0.018022	0.007357
0.019661	2.094770E-5	0.010732	1.952873E-5	163.482245	160.329906	26.512536	162.507210	0.994036	0.165362	0.019661	0.007434
0.021299	2.120610E-5	0.011630	1.969367E-5	177.154020	161.744375	27.038715	163.988826	0.925685	0.167169	0.021299	0.007526
0.022938	2.143327E-5	0.012602	1.986208E-5	191.968745	163.193263	27.639638	165.517343	0.862210	0.169368	0.022938	0.007606
0.024576	2.167979E-5	0.013656	2.003451E-5	208.022593	164.679649	28.316391	167.096393	0.803261	0.171948	0.024576	0.007694
0.026214	2.195967E-5	0.014798	2.021148E-5	225.420308	166.206323	29.070059	168.729399	0.748510	0.174903	0.026214	0.007793
0.029491	2.228253E-5	0.016036	2.039360E-5	244.272426	167.776074	29.901768	170.419854	0.697663	0.178224	0.029491	0.007908
0.032768	2.263282E-5	0.017377	2.058151E-5	264.698961	169.392133	30.812912	172.171804	0.650444	0.181903	0.032768	0.008032
0.036045	2.295156E-5	0.018830	2.077581E-5	286.836979	171.056960	31.804813	173.988591	0.606577	0.185931	0.036045	0.008145
0.039322	2.323574E-5	0.020405	2.097723E-5	310.824263	172.773385	32.878886	175.873999	0.565831	0.190301	0.039322	0.008246
0.042598	2.356181E-5	0.022112	2.118643E-5	336.815525	174.544540	34.036893	177.832243	0.527981	0.195004	0.042598	0.008362
0.045875	2.381173E-5	0.023961	2.140418E-5	364.984155	176.372730	35.280458	179.866758	0.492807	0.200034	0.045875	0.008450
0.049152	2.410427E-5	0.025965	2.163124E-5	395.503870	178.261301	36.611605	181.982145	0.460127	0.205382	0.049152	0.008554
0.052429	2.443058E-5	0.028136	2.186843E-5	428.581285	180.212823	38.032438	184.182322	0.429749	0.211042	0.052429	0.008670
0.058982	2.480930E-5	0.030489	2.211662E-5	464.426429	182.229962	39.545051	186.471365	0.401509	0.217006	0.058982	0.008804
0.065536	2.534290E-5	0.033039	2.237675E-5	503.267483	184.315527	41.151774	188.853599	0.375255	0.223268	0.065536	0.008994
0.072090	2.592211E-5	0.035801	2.264969E-5	545.353727	186.472354	42.855156	191.333487	0.350843	0.229820	0.072090	0.009199
0.078643	2.643918E-5	0.038796	2.293655E-5	590.954872	188.704181	44.658413	193.916584	0.328141	0.236658	0.078643	0.009383
0.085197	2.701756E-5	0.042040	2.323829E-5	640.383453	191.012715	46.564160	196.606405	0.307014	0.243775	0.085197	0.009588
0.091750	2.738640E-5	0.045555	2.355610E-5	693.929399	193.402063	48.575830	199.409050	0.287362	0.251165	0.091750	0.009719
0.098304	2.776617E-5	0.049365	2.389115E-5	751.961405	195.875364	50.697308	202.329868	0.269069	0.258824	0.098304	0.009854
0.104858	2.825798E-5	0.053493	2.424468E-5	814.856718	198.435067	52.932005	205.373497	0.252036	0.266747	0.104858	0.010028
0.117965	2.888965E-5	0.057967	2.461809E-5	883.001453	201.084686	55.283888	208.545821	0.236178	0.274928	0.117965	0.010252
0.131072	2.968208E-5	0.062815	2.501267E-5	956.838824	203.828064	57.757701	211.853326	0.221410	0.283365	0.131072	0.010534
0.144179	3.060363E-5	0.068068	2.543004E-5	1036.858269	206.668247	60.358098	215.301799	0.207648	0.292053	0.144179	0.010861
0.157286	3.045471E-5	0.073760	2.587178E-5	1123.563565	209.609499	63.090456	218.898487	0.194825	0.300990	0.157286	0.010808
0.170394	3.187263E-5	0.079929	2.633960E-5	1217.534118	212.654671	65.959973	222.649336	0.182869	0.310174	0.170394	0.011311
0.183501	3.581070E-5	0.086614	2.683533E-5	1319.349548	215.808702	68.972967	226.562719	0.171723	0.319602	0.183501	0.012709
0.399815	4.304068E-5	0.093857	2.736083E-5	1429.701878	219.074239	72.135329	230.644809	0.161324	0.329273	0.399815	0.015274
0.599723	5.266090E-5	0.101707	2.791837E-5	1549.259187	222.455878	75.453754	234.903995	0.151623	0.339185	0.599723	0.018688
0.799631	6.345403E-5	0.110212	2.851005E-5	1678.804179	225.958888	78.936402	239.349900	0.142572	0.349340	0.799631	0.022519
0.999539	7.305372E-5	0.119429	2.913828E-5	1819.212911	229.586413	82.590723	243.990059	0.134118	0.359737	0.999539	0.025926
1.199450	8.244740E-5	0.129416	2.980563E-5	1971.345805	233.343955	86.425438	248.834800	0.126226	0.370378	1.199450	0.029259
1.399350	9.174564E-5	0.140239	3.051500E-5	2136.218679	237.235401	90.449425	253.893155	0.118852	0.381264	1.399350	0.032559
1.599260	0.000101	0.151968	3.126930E-5	2314.863025	241.266024	94.672516	259.175962	0.111962	0.392399	1.599260	0.035967
1.799170	0.000111	0.164675	3.207154E-5	2508.444501	245.441348	99.105753	264.694929	0.105522	0.403786	1.799170	0.039312
1.999080	0.000120	0.178447	3.292552E-5	2718.237066	249.765886	103.760212	270.461050	0.099499	0.415430	1.999080	0.042624
2.198980	0.000129	0.193371	3.383485E-5	2945.564440	254.244876	108.647803	276.486531	0.093865	0.427335	2.198980	0.045893
2.398890	0.000139	0.209542	3.480339E-5	3191.881810	258.884706	113.782276	282.785603	0.088595	0.439509	2.398890	0.049314
2.598800	0.000147	0.227064	3.583561E-5	3458.822480	263.690618	119.177807	289.371891	0.083662	0.451961	2.598800	0.052237
2.798710	0.000157	0.246053	3.693628E-5	3748.091782	268.668093	124.849282	296.259831	0.079043	0.464697	2.798710	0.055704
2.998620	0.000167	0.266631	3.811055E-5	4061.533785	273.823315	130.813184	303.465479	0.074717	0.477728	2.998620	0.059104
3.198520	0.000175	0.288931	3.936381E-5	4401.178999	279.162253	137.087208	311.005573	0.070664	0.491066	3.198520	0.062251
3.398430	0.000186	0.313092	4.070192E-5	4769.210193	284.691925	143.691102	318.899082	0.066866	0.504725	3.398430	0.065843
3.598340	0.000194	0.339278	4.213170E-5	5168.053279	290.418046	150.645330	327.164572	0.063305	0.518719	3.598340	0.068889
3.798250	0.000204	0.367650	4.365980E-5	5600.251196	296.347690	157.972591	335.823306	0.059966	0.533065	3.798250	0.072331
3.998160	0.000214	0.398393	4.529395E-5	6068.639730	302.485546	165.695709	344.895018	0.056832	0.547781	3.998160	0.075855
4.198060	0.000221	0.431716	4.704299E-5	6576.121556	308.839873	173.841632	354.405107	0.053893	0.562886	4.198060	0.078486
4.397970	0.000232	0.467819	4.891510E-5	7126.090280	315.416364	182.438480	364.377938	0.051133	0.578405	4.397970	0.082196
4.597880	0.000240	0.506937	5.092023E-5	7722.061823	322.220228	191.515448	374.838688	0.048541	0.594362	4.597880	0.085181
4.797790	0.000249	0.549335	5.306963E-5	8367.784713	329.259775	201.106941	385.818611	0.046108	0.610785	4.797790	0.088262
4.997690	0.000258	0.595274	5.537422E-5	9067.594773	336.538718	211.247262	397.345837	0.043820	0.627706	4.997690	0.091652
5.197600	0.000267	0.645051	5.784667E-5	9825.842211	344.064804	221.976234	409.455782	0.041671	0.645158	5.197600	0.094907
5.397510	0.000277	0.699006	6.050157E-5	10647.591878	351.841826	233.335029	422.182314	0.039650	0.663182	5.397510	0.098166
5.597420	0.000287	0.757461	6.335254E-5	11538.050133	359.874802	245.368836	435.563702	0.037750	0.681817	5.597420	0.101748
5.797320	0.000295	0.820799	6.641616E-5	12502.988218	368.168100	258.127281	449.641461	0.035963	0.701113	5.797320	0.104625
5.997230	0.000305	0.889442	6.971076E-5	13548.689997	376.723627	271.662585	464.458019	0.034281	0.721119	5.997230	0.108113
6.197140	0.000314	0.963830	7.325539E-5	14681.794259	385.543367	286.031970	480.060387	0.032698	0.741893	6.197140	0.111530
6.397050	0.000323	1.044426	7.707018E-5	15909.588659	394.628591	301.298648	496.500353	0.031208	0.763499	6.397050	0.114692
6.596960	0.000333	1.131779	8.117939E-5	17240.059920	403.978024	317.530494	513.832520	0.029805	0.786009	6.596960	0.118130
6.796860	0.000340	1.226426	8.560653E-5	18681.762849	413.588289	334.800593	532.115316	0.028483	0.809502	6.796860	0.120537
6.996770	0.000350	1.328991	9.037928E-5	20243.918617	423.456160	353.191210	551.415587	0.027239	0.834068	6.996770	0.124161
7.196680	0.000359	1.440131	9.552685E-5	21936.842052	433.574989	372.792221	571.805309	0.026066	0.859810	7.196680	0.127390
7.396590	0.000367	1.560580	0.000101	23771.704699	443.929334	393.693927	593.353319	0.024960	0.886839	7.396590	0.130190
7.596490	0.000376	1.691063	0.000107	25759.788816	454.503795	415.996383	616.138532	0.023919	0.915276	7.596490	0.133406
7.796400	0.000384	1.832484	0.000114	27913.677710	465.284843	439.818939	640.258295	0.022937	0.945268	7.796400	0.136326
7.996310	0.000391	1.985733	0.000121	30248.132565	476.242891	465.280373	665.802611	0.022011	0.976981	7.996310	0.138834
8.196220	0.000401	2.151798	0.000128	32777.679033	487.349804	492.515533	692.879053	0.021139	1.010600	8.196220	0.142351
8.396120	0.000409	2.331782	0.000136	35518.996945	498.565230	521.667318	721.598281	0.020316	1.046337	8.396120	0.145319
8.596030	0.000419	2.526771	0.000145	38489.545391	509.841707	552.890910	752.081728	0.019540	1.084436	8.596030	0.148552
8.795940	0.000427	2.738093	0.000155	41708.328964	521.122921	586.357376	784.464193	0.018808	1.125181	8.795940	0.151694
8.995850	0.000436	2.967080	0.000165	45196.201604	532.339592	622.251608	818.891021	0.018119	1.168900	8.995850	0.154832
9.195760	0.000445	3.215215	0.000176	48975.597600	543.411549	660.779157	855.526274	0.017468	1.215983	9.195760	0.157766
9.395660	0.000450	3.484055	0.000188	53071.421986	554.240621	702.162412	894.547214	0.016856	1.266891	9.395660	0.159597
9.595570	0.000458	3.775417	0.000201	57510.478721	564.701703	746.624158	936.128008	0.016278	1.322157	9.595570	0.162387
9.795480	0.000468	4.091182	0.000216	62319.613944	574.666108	794.433928	980.492938	0.015733	1.382427	9.795480	0.166200
9.995390	0.000476	4.433297	0.000231	67531.612716	583.960222	845.856711	1027.853645	0.015220	1.448483	9.995390	0.168928
10.195300	0.000485	4.804048	0.000248	73178.170197	592.402707	901.210939	1078.481397	0.014738	1.521281	10.195300	0.171998
10.395200	0.000489	5.205844	0.000265	79297.963313	599.763370	960.827111	1132.653891	0.014284	1.602010	10.395200	0.173634
10.595100	0.000499	5.641185	0.000285	85930.503059	605.771680	1025.041485	1190.659218	0.013856	1.692125	10.595100	0.177165
10.795000	0.000507	6.112948	0.000306	93116.197834	610.132509	1094.260820	1252.864087	0.013455	1.793481	10.795000	0.179907
10.994900	0.000511	6.624129	0.000328	100903.919518	612.482865	1168.903936	1319.648314	0.013078	1.908468	10.994900	0.181432
11.194800	0.000519	7.178119	0.000353	109342.562031	612.414778	1249.434673	1391.452070	0.012726	2.040177	11.194800	0.184184
11.394700	0.000528	7.778470	0.000379	118485.068830	609.472892	1336.429093	1468.843057	0.012397	2.192762	11.394700	0.187530
11.594600	0.000532	8.428908	0.000408	128393.885133	603.123127	1430.542483	1552.484880	0.012092	2.371891	11.594600	0.188686
11.794600	0.000542	9.133745	0.000438	139132.432783	592.778938	1532.596980	1643.240814	0.011811	2.585444	11.794600	0.192420
11.994500	0.000548	9.897733	0.000471	150768.813663	577.798814	1643.707968	1742.305184	0.011556	2.844776	11.994500	0.194502
12.194400	0.000557	10.725349	0.000506	163376.230455	557.494511	1765.557894	1851.484488	0.011333	3.166951	12.194400	0.197526
12.394300	0.000565	11.622308	0.000544	177039.453726	531.103308	1900.690860	1973.498535	0.011147	3.578759	12.394300	0.200404
