MicroRheology Analysis v9.2.8
10/03/18 5:43:36 PM

Correlation Mode:	Cross
Geometry:	Transmission
Multi-Tau Duration (s):	120
Echo Duration (s):	60
Wavelength (nm):	685.0
Temperature (°C):	35.01
Cuvette Thickness (mm):	10.00
Absorption Length (mm):	Inf
Solvent:	Water
Solvent Refractive Index:	1.329
Particle Radius (nm):	465.0
Mean Count Rate (kHz):	172.5
l* (microns):	974.76



Lag Time (s)	Mean Square Displacement (micron^2)	Fit Lag Time (s)	Mean Square Displacement Fit (micron^2)	Frequency(rad/s)	G1 (Pa)	G2 (Pa)	G* (Pa)	Complex Viscosity (Pa s)	Loss Tangent (-)	Time (s)	Creep Compliance (1/Pa)

4.012500E-6	1.638889E-6	4.012507E-6	1.641734E-6	0.208427	0.533845	5.698026	5.722979	27.458008	10.673557	4.012500E-6	0.000563
4.412500E-6	1.738367E-6	4.413325E-6	1.769080E-6	0.229245	0.450339	6.226909	6.243173	27.233613	13.827159	4.412500E-6	0.000597
4.812500E-6	1.847600E-6	4.854127E-6	1.901536E-6	0.252141	0.377590	6.813869	6.824323	27.065515	18.045683	4.812500E-6	0.000634
5.212500E-6	1.966572E-6	5.338860E-6	2.039046E-6	0.277324	0.318792	7.465772	7.472575	26.945331	23.418953	5.212500E-6	0.000675
5.612500E-6	2.173109E-6	5.872112E-6	2.181615E-6	0.305024	0.277923	8.189635	8.194350	26.864578	29.467249	5.612500E-6	0.000746
6.012500E-6	2.350584E-6	6.458620E-6	2.329162E-6	0.335491	0.259856	8.992657	8.996411	26.815633	34.606342	6.012500E-6	0.000807
6.412500E-6	2.420423E-6	7.103760E-6	2.481643E-6	0.368995	0.270457	9.882673	9.886373	26.792697	36.540661	6.412500E-6	0.000831
7.212500E-6	2.498531E-6	7.813182E-6	2.638952E-6	0.405854	0.316675	10.866751	10.871364	26.786380	34.315103	7.212500E-6	0.000858
8.012500E-6	2.679442E-6	8.593585E-6	2.801088E-6	0.446383	0.406688	11.952914	11.959831	26.792754	29.390901	8.012500E-6	0.000920
8.812500E-6	2.934961E-6	9.451832E-6	2.967937E-6	0.490973	0.549907	13.147847	13.159342	26.802576	23.909230	8.812500E-6	0.001008
9.612500E-6	3.011487E-6	1.039596E-5	3.139479E-6	0.540007	0.757082	14.458573	14.478381	26.811478	19.097774	9.612500E-6	0.001034
1.041250E-5	3.122129E-6	1.143423E-5	3.315580E-6	0.593940	1.040333	15.891182	15.925199	26.812790	15.275093	1.041250E-5	0.001072
1.121250E-5	3.237379E-6	1.257635E-5	3.496215E-6	0.653264	1.413074	17.450602	17.507721	26.800395	12.349388	1.121250E-5	0.001112
1.201250E-5	3.368364E-6	1.383238E-5	3.681247E-6	0.718504	1.890114	19.141343	19.234436	26.770101	10.127082	1.201250E-5	0.001157
1.281250E-5	3.506920E-6	1.521401E-5	3.870630E-6	0.790279	2.487317	20.965238	21.112271	26.714952	8.428856	1.281250E-5	0.001204
1.441250E-5	3.668819E-6	1.673338E-5	4.064214E-6	0.869211	3.221571	22.923156	23.148426	26.631549	7.115522	1.441250E-5	0.001260
1.601250E-5	3.800403E-6	1.840471E-5	4.261946E-6	0.956021	4.110642	25.013795	25.349306	26.515426	6.085130	1.601250E-5	0.001305
1.761250E-5	3.973889E-6	2.024279E-5	4.463669E-6	1.051499	5.172993	27.234008	27.720949	26.363272	5.264652	1.761250E-5	0.001364
1.921250E-5	4.173951E-6	2.226459E-5	4.669291E-6	1.156534	6.426880	29.576648	30.266862	26.170320	4.602023	1.921250E-5	0.001433
2.081250E-5	4.380154E-6	2.448860E-5	4.878686E-6	1.272031	7.890866	32.033954	32.991513	25.936083	4.059625	2.081250E-5	0.001504
2.241250E-5	4.571619E-6	2.693442E-5	5.091656E-6	1.399095	9.582423	34.593105	35.895763	25.656414	3.610058	2.241250E-5	0.001570
2.401250E-5	4.763931E-6	2.962438E-5	5.308060E-6	1.538821	11.518179	37.240062	38.980644	25.331493	3.233155	2.401250E-5	0.001636
2.561250E-5	5.033349E-6	3.258326E-5	5.527757E-6	1.692505	13.713603	39.957853	42.245626	24.960410	2.913738	2.561250E-5	0.001728
2.881250E-5	5.318519E-6	3.583751E-5	5.750535E-6	1.861575	16.181140	42.725037	45.686520	24.541869	2.640422	2.881250E-5	0.001826
3.201250E-5	5.551401E-6	3.941685E-5	5.976210E-6	2.047490	18.931406	45.519769	49.299569	24.078051	2.404458	3.201250E-5	0.001906
3.521250E-5	5.734513E-6	4.335424E-5	6.204600E-6	2.251990	21.971897	48.316795	53.078027	23.569390	2.199027	3.521250E-5	0.001969
3.841250E-5	5.887235E-6	4.768414E-5	6.435409E-6	2.476917	25.306363	51.089068	57.013199	23.017812	2.018823	3.841250E-5	0.002021
4.161250E-5	6.068063E-6	5.244672E-5	6.668450E-6	2.724291	28.935123	53.808647	61.095105	22.426058	1.859631	4.161250E-5	0.002084
4.481250E-5	6.331085E-6	5.768523E-5	6.903470E-6	2.996372	32.854735	56.446759	65.312099	21.797061	1.718071	4.481250E-5	0.002174
4.801250E-5	6.609499E-6	6.344667E-5	7.140181E-6	3.295655	37.056923	58.973639	69.649879	21.133848	1.591434	4.801250E-5	0.002269
5.121250E-5	6.835263E-6	6.978345E-5	7.378311E-6	3.624810	41.529978	61.361039	74.093968	20.440786	1.477512	5.121250E-5	0.002347
5.761250E-5	7.062505E-6	7.675312E-5	7.617572E-6	3.986882	46.257197	63.580467	78.626993	19.721423	1.374499	5.761250E-5	0.002425
6.401250E-5	7.310521E-6	8.441908E-5	7.857666E-6	4.385088	51.217954	65.605814	83.231013	18.980465	1.280914	6.401250E-5	0.002510
7.041250E-5	7.536859E-6	9.285094E-5	8.098279E-6	4.823008	56.389739	67.414228	87.889025	18.222866	1.195505	7.041250E-5	0.002588
7.681250E-5	7.785292E-6	0.000102	8.339053E-6	5.304775	61.744175	68.983164	92.579804	17.452163	1.117242	7.681250E-5	0.002673
8.321250E-5	7.996579E-6	0.000112	8.579713E-6	5.834549	67.252822	70.296360	97.285766	16.674085	1.045255	8.321250E-5	0.002746
8.961250E-5	8.140434E-6	0.000124	8.819866E-6	6.417370	72.882210	71.338117	101.985016	15.892028	0.978814	8.961250E-5	0.002795
9.601250E-5	8.327180E-6	0.000136	9.059194E-6	7.058244	78.599862	72.099607	106.659701	15.111365	0.917299	9.601250E-5	0.002859
0.000102	8.541841E-6	0.000149	9.297351E-6	7.763198	84.371658	72.574220	111.290584	14.335662	0.860173	0.000102	0.002933
0.000115	8.746878E-6	0.000164	9.533947E-6	8.538608	90.162930	72.760070	115.859319	13.568876	0.806984	0.000115	0.003003
0.000128	9.015292E-6	0.000181	9.768705E-6	9.391506	95.938339	72.659079	120.347441	12.814498	0.757352	0.000128	0.003095
0.000141	9.262120E-6	0.000199	1.000120E-5	10.329387	101.666065	72.278376	124.740340	12.076258	0.710939	0.000141	0.003180
0.000154	9.469847E-6	0.000219	1.023115E-5	11.361033	107.314768	71.627403	129.023038	11.356629	0.667452	0.000154	0.003252
0.000166	9.662422E-6	0.000241	1.045815E-5	12.495750	112.855253	70.719713	133.182528	10.658226	0.626641	0.000166	0.003318
0.000179	9.811190E-6	0.000265	1.068197E-5	13.743859	118.260901	69.571762	137.207400	9.983179	0.588290	0.000179	0.003369
0.000192	9.963272E-6	0.000291	1.090222E-5	15.116686	123.507012	68.202591	141.087120	9.333204	0.552216	0.000192	0.003421
0.000205	1.014632E-5	0.000320	1.111864E-5	16.626338	128.574405	66.634029	144.815301	8.709994	0.518253	0.000205	0.003484
0.000230	1.034542E-5	0.000352	1.133093E-5	18.286962	133.445641	64.888436	148.385472	8.114277	0.486254	0.000230	0.003552
0.000256	1.056843E-5	0.000387	1.153884E-5	20.113391	138.107374	62.990209	151.793983	7.546912	0.456096	0.000256	0.003629
0.000282	1.078287E-5	0.000426	1.174217E-5	22.122334	142.549230	60.964071	155.038385	7.008229	0.427670	0.000282	0.003702
0.000307	1.094886E-5	0.000468	1.194066E-5	24.331846	146.764664	58.835289	158.118494	6.498417	0.400882	0.000307	0.003759
0.000333	1.110354E-5	0.000515	1.213413E-5	26.762052	150.750439	56.628760	161.035745	6.017317	0.375646	0.000333	0.003812
0.000358	1.123475E-5	0.000567	1.232242E-5	29.435096	154.505802	54.368964	163.792635	5.564536	0.351889	0.000358	0.003858
0.000384	1.136824E-5	0.000623	1.250546E-5	32.374886	158.033487	52.079734	166.393755	5.139594	0.329549	0.000384	0.003903
0.000410	1.152236E-5	0.000686	1.268311E-5	35.608263	161.338823	49.783491	168.844934	4.741735	0.308565	0.000410	0.003956
0.000461	1.170491E-5	0.000754	1.285533E-5	39.164790	164.429249	47.501401	171.153034	4.370074	0.288887	0.000461	0.004019
0.000512	1.188986E-5	0.000829	1.302210E-5	43.076896	167.313581	45.253383	173.325425	4.023628	0.270470	0.000512	0.004082
0.000563	1.207743E-5	0.000912	1.318345E-5	47.379415	170.002764	43.057960	175.370829	3.701414	0.253278	0.000563	0.004147
0.000614	1.223873E-5	0.001003	1.333945E-5	52.111230	172.509526	40.931667	177.299007	3.402319	0.237272	0.000614	0.004202
0.000666	1.237802E-5	0.001103	1.349017E-5	57.315851	174.847188	38.889334	179.119846	3.125136	0.222419	0.000666	0.004250
0.000717	1.249569E-5	0.001214	1.363576E-5	63.040284	177.030181	36.944287	180.844036	2.868706	0.208689	0.000717	0.004290
0.000768	1.262319E-5	0.001335	1.377643E-5	69.337095	179.072755	35.108305	182.481902	2.631808	0.196056	0.000768	0.004334
0.000819	1.276119E-5	0.001468	1.391235E-5	76.261965	180.990312	33.391716	184.044831	2.413324	0.184494	0.000819	0.004382
0.000922	1.291719E-5	0.001615	1.404383E-5	83.878737	182.797922	31.803127	185.543847	2.212049	0.173980	0.000922	0.004435
0.001024	1.308595E-5	0.001776	1.417116E-5	92.256091	184.510765	30.349974	186.990223	2.026860	0.164489	0.001024	0.004493
0.001126	1.325375E-5	0.001953	1.429471E-5	101.470387	186.143697	29.038403	188.395077	1.856651	0.156000	0.001126	0.004551
0.001229	1.340015E-5	0.002149	1.441484E-5	111.605147	187.711351	27.873474	189.769550	1.700366	0.148491	0.001229	0.004601
0.001331	1.353566E-5	0.002363	1.453200E-5	122.753039	189.227598	26.859294	191.124319	1.556982	0.141942	0.001331	0.004648
0.001434	1.364342E-5	0.002599	1.464665E-5	135.013778	190.705815	25.999180	192.469907	1.425558	0.136331	0.001434	0.004685
0.001536	1.376005E-5	0.002859	1.475932E-5	148.496719	192.159641	25.295527	193.817417	1.305197	0.131638	0.001536	0.004725
0.001638	1.390046E-5	0.003144	1.487056E-5	163.329973	193.600660	24.750114	195.176289	1.194981	0.127841	0.001638	0.004773
0.001843	1.407740E-5	0.003458	1.498098E-5	179.640439	195.041379	24.364383	196.557276	1.094171	0.124919	0.001843	0.004834
0.002048	1.427561E-5	0.003804	1.509119E-5	197.584701	196.492326	24.139152	197.969525	1.001948	0.122850	0.002048	0.004902
0.002253	1.447432E-5	0.004184	1.520192E-5	217.319179	197.963916	24.075103	199.422472	0.917648	0.121614	0.002253	0.004970
0.002458	1.463469E-5	0.004602	1.531381E-5	239.021940	199.466532	24.172643	200.925892	0.840617	0.121186	0.002458	0.005025
0.002662	1.479099E-5	0.005061	1.542768E-5	262.898847	201.008712	24.431953	202.488081	0.770213	0.121547	0.002662	0.005079
0.002867	1.492089E-5	0.005567	1.554433E-5	289.155551	202.599430	24.853240	204.118134	0.705911	0.122672	0.002867	0.005123
0.003072	1.506250E-5	0.006123	1.566456E-5	318.035414	204.246708	25.436662	205.824540	0.647175	0.124539	0.003072	0.005172
0.003277	1.522353E-5	0.006734	1.578933E-5	349.798345	205.958279	26.182468	207.615833	0.593530	0.127125	0.003277	0.005227
0.003686	1.539923E-5	0.007407	1.591950E-5	384.734258	207.741359	27.091036	209.500349	0.544533	0.130408	0.003686	0.005287
0.004096	1.556526E-5	0.008146	1.605613E-5	423.160432	209.602753	28.162901	211.486319	0.499778	0.134363	0.004096	0.005344
0.004506	1.572135E-5	0.008960	1.620023E-5	465.425414	211.548843	29.398766	213.581836	0.458896	0.138969	0.004506	0.005398
0.004915	1.583714E-5	0.009855	1.635289E-5	511.910178	213.586078	30.799716	215.795355	0.421549	0.144203	0.004915	0.005438
0.005325	1.593768E-5	0.010839	1.651526E-5	563.043875	215.719899	32.366899	218.134571	0.387420	0.150041	0.005325	0.005472
0.005734	1.601577E-5	0.011922	1.668857E-5	619.276266	217.956542	34.101990	220.608250	0.356236	0.156462	0.005734	0.005499
0.006144	1.608759E-5	0.013113	1.687412E-5	681.131390	220.301076	36.006866	223.224234	0.327726	0.163444	0.006144	0.005524
0.006554	1.616025E-5	0.014422	1.707327E-5	749.153590	222.759796	38.084123	225.991874	0.301663	0.170965	0.006554	0.005549
0.007373	1.624801E-5	0.015863	1.728750E-5	823.985319	225.337336	40.336446	228.919078	0.277819	0.179005	0.007373	0.005579
0.008192	1.634802E-5	0.017447	1.751832E-5	906.278622	228.039678	42.767085	232.015341	0.256009	0.187542	0.008192	0.005613
0.009011	1.645269E-5	0.019190	1.776741E-5	996.797340	230.872165	45.379967	235.289817	0.236046	0.196559	0.009011	0.005649
0.009830	1.654384E-5	0.021106	1.803652E-5	1096.358614	233.840228	48.179297	238.751956	0.217768	0.206035	0.009830	0.005680
0.010650	1.665331E-5	0.023214	1.832760E-5	1205.860347	236.949475	51.169885	242.411656	0.201028	0.215953	0.010650	0.005718
0.011469	1.675062E-5	0.025533	1.864269E-5	1326.292021	240.206115	54.357471	246.279744	0.185690	0.226295	0.011469	0.005751
0.012288	1.685675E-5	0.028083	1.898394E-5	1458.761744	243.615835	57.748234	250.366798	0.171630	0.237046	0.012288	0.005788
0.013107	1.693782E-5	0.030888	1.935374E-5	1604.458167	247.185191	61.349182	254.684591	0.158736	0.248191	0.013107	0.005816
0.014746	1.699756E-5	0.033973	1.975469E-5	1764.717029	250.919888	65.167657	259.244313	0.146904	0.259715	0.014746	0.005836
0.016384	1.708233E-5	0.037366	2.018964E-5	1940.954734	254.827597	69.212460	264.059593	0.136046	0.271605	0.016384	0.005865
0.018022	1.726851E-5	0.041098	2.066159E-5	2134.810052	258.915141	73.493273	269.143663	0.126074	0.283851	0.018022	0.005929
0.019661	1.756614E-5	0.045203	2.117389E-5	2348.032702	263.190327	78.020742	274.511173	0.116911	0.296442	0.019661	0.006031
0.021299	1.798870E-5	0.049718	2.173021E-5	2582.579431	267.659556	82.805629	280.175678	0.108487	0.309369	0.021299	0.006177
0.022938	1.838107E-5	0.054684	2.233450E-5	2840.501940	272.332303	87.860944	286.154554	0.100741	0.322624	0.022938	0.006311
0.024576	1.867378E-5	0.060146	2.299119E-5	3124.206985	277.216642	93.200851	292.464468	0.093612	0.336202	0.024576	0.006412
0.026214	1.883887E-5	0.066152	2.370500E-5	3436.247060	282.321480	98.840498	299.123490	0.087049	0.350099	0.026214	0.006468
0.029491	1.897849E-5	0.072760	2.448147E-5	3779.446396	287.656804	104.797156	306.151728	0.081004	0.364313	0.029491	0.006516
0.032768	1.922754E-5	0.080027	2.532631E-5	4156.959270	293.230696	111.088330	313.567949	0.075432	0.378843	0.032768	0.006602
0.036045	1.962593E-5	0.088020	2.624599E-5	4572.091577	299.055841	117.735454	321.397003	0.070295	0.393691	0.036045	0.006739
0.039322	2.015706E-5	0.096811	2.724767E-5	5028.770326	305.140892	124.760306	329.660580	0.065555	0.408861	0.039322	0.006921
0.042598	2.069506E-5	0.106479	2.833923E-5	5531.006724	311.498759	132.188069	338.386114	0.061180	0.424361	0.042598	0.007106
0.045875	2.098431E-5	0.117115	2.952984E-5	6083.484894	318.138538	140.044505	347.598320	0.057138	0.440200	0.045875	0.007205
0.049152	2.131310E-5	0.128813	3.082900E-5	6691.032597	325.074497	148.360198	357.329227	0.053404	0.456388	0.049152	0.007318
0.052429	2.177228E-5	0.141678	3.224756E-5	7359.340495	332.317402	157.167449	367.609117	0.049951	0.472944	0.052429	0.007476
0.058982	2.234371E-5	0.155827	3.379752E-5	8094.367931	339.879981	166.501775	378.472248	0.046757	0.489884	0.058982	0.007672
0.065536	2.323008E-5	0.171393	3.549295E-5	8902.786247	347.775868	176.403415	389.956689	0.043802	0.507233	0.065536	0.007976
0.072090	2.414954E-5	0.188509	3.734807E-5	9792.023101	356.015914	186.914478	402.099929	0.041064	0.525017	0.072090	0.008292
0.078643	2.492109E-5	0.207339	3.938044E-5	10769.949671	364.615361	198.084093	414.947791	0.038528	0.543269	0.078643	0.008557
0.085197	2.582896E-5	0.228046	4.160786E-5	11845.663461	373.585393	209.964547	428.545397	0.036177	0.562026	0.085197	0.008869
0.091750	2.651660E-5	0.250823	4.405195E-5	13028.787060	382.938606	222.613665	442.943359	0.033997	0.581330	0.091750	0.009105
0.098304	2.719732E-5	0.275877	4.673597E-5	14330.045794	392.687146	236.095907	458.196979	0.031975	0.601232	0.098304	0.009338
0.104858	2.817794E-5	0.303430	4.968540E-5	15761.267516	402.842310	250.482531	474.366340	0.030097	0.621788	0.104858	0.009675
0.117965	2.939986E-5	0.333737	5.292980E-5	17335.460808	413.414501	265.852527	491.517157	0.028353	0.643065	0.117965	0.010095
0.131072	3.093013E-5	0.367068	5.650112E-5	19066.969001	424.410988	282.291716	509.718844	0.026733	0.665138	0.131072	0.010620
0.144179	3.270954E-5	0.403728	6.043585E-5	20971.334949	435.838276	299.895692	529.048607	0.025227	0.688089	0.144179	0.011231
0.157286	3.240352E-5	0.444052	6.477478E-5	23065.792701	447.703493	318.774322	549.595748	0.023827	0.712021	0.157286	0.011126
0.170394	3.521228E-5	0.488403	6.956274E-5	25369.862761	460.002116	339.041680	571.446592	0.022525	0.737044	0.170394	0.012090
0.183501	4.360996E-5	0.537180	7.484964E-5	27903.723413	472.732876	360.829042	594.704943	0.021313	0.763283	0.183501	0.014974
0.399815	5.772591E-5	0.590840	8.069323E-5	30690.605612	485.887512	384.283079	619.483785	0.020185	0.790889	0.399815	0.019820
0.599722	7.862771E-5	0.649848	8.715338E-5	33755.980475	499.447946	409.562239	645.902066	0.019134	0.820030	0.599722	0.026997
0.799630	0.000108	0.714748	9.430033E-5	37127.216854	513.393104	436.847096	674.097815	0.018156	0.850902	0.799630	0.037127
0.999537	0.000127	0.786144	0.000102	40835.326043	527.690363	466.338762	704.222238	0.017245	0.883736	0.999537	0.043657
1.199450	0.000150	0.864653	0.000111	44914.359096	542.288396	498.251362	736.431344	0.016396	0.918794	1.199450	0.051574
1.399350	0.000173	0.951023	0.000121	49400.307276	557.127518	532.827758	770.906279	0.015605	0.956384	1.399350	0.059435
1.599260	0.000195	1.046002	0.000131	54333.919880	572.131249	570.343241	807.852448	0.014868	0.996875	1.599260	0.067038
1.799170	0.000219	1.150469	0.000143	59760.785144	587.191758	611.091023	847.482388	0.014181	1.040701	1.799170	0.075116
1.999070	0.000242	1.265376	0.000157	65728.907578	602.187326	655.411419	890.052641	0.013541	1.088385	1.999070	0.083086
2.198980	0.000265	1.391780	0.000171	72294.147617	616.947671	703.663089	935.823793	0.012945	1.140556	2.198980	0.091028
2.398890	0.000289	1.530776	0.000187	79514.321350	631.278942	756.260339	985.110553	0.012389	1.197981	2.398890	0.099378
2.598800	0.000311	1.683671	0.000205	87456.715489	644.923397	813.640703	1038.237633	0.011871	1.261608	2.598800	0.106941
2.798700	0.000336	1.851828	0.000225	96191.194193	657.585739	876.312771	1095.601696	0.011390	1.332621	2.798700	0.115394
2.998610	0.000360	2.036772	0.000247	105799.596075	668.882366	944.809017	1157.612931	0.010942	1.412519	2.998610	0.123616
3.198520	0.000385	2.240229	0.000271	116365.870571	678.374918	1019.753811	1224.781762	0.010525	1.503230	3.198520	0.132033
3.398430	0.000408	2.463939	0.000297	127988.827955	685.512371	1101.814845	1297.660651	0.010139	1.607287	3.398430	0.139917
3.598330	0.000429	2.710063	0.000327	140770.514153	689.667458	1191.801635	1376.964902	0.009782	1.728082	3.598330	0.147204
3.798240	0.000451	2.980704	0.000359	154831.835204	690.071702	1290.619982	1463.522768	0.009452	1.870269	3.798240	0.154831
3.998150	0.000477	3.278427	0.000394	170296.487846	685.859092	1399.419392	1558.453505	0.009151	2.040389	3.998150	0.163621
4.198060	0.000502	3.605896	0.000432	187305.906438	676.026332	1519.691542	1663.272072	0.008880	2.247977	4.198060	0.172329
4.397960	0.000523	3.966037	0.000473	206010.277601	659.462760	1653.636045	1780.281804	0.008642	2.507550	4.397960	0.179625
4.597870	0.000548	4.362143	0.000518	226586.542294	634.878771	1804.532600	1912.958170	0.008443	2.842326	4.597870	0.188022
