MicroRheology Analysis v9.2.8
10/03/18 5:34:55 PM

Correlation Mode:	Cross
Geometry:	Transmission
Multi-Tau Duration (s):	120
Echo Duration (s):	60
Wavelength (nm):	685.0
Temperature (°C):	24.98
Cuvette Thickness (mm):	10.00
Absorption Length (mm):	Inf
Solvent:	Water
Solvent Refractive Index:	1.329
Particle Radius (nm):	465.0
Mean Count Rate (kHz):	172.4
l* (microns):	993.60



Lag Time (s)	Mean Square Displacement (micron^2)	Fit Lag Time (s)	Mean Square Displacement Fit (micron^2)	Frequency(rad/s)	G1 (Pa)	G2 (Pa)	G* (Pa)	Complex Viscosity (Pa s)	Loss Tangent (-)	Time (s)	Creep Compliance (1/Pa)

7.212500E-6	1.934932E-6	7.212530E-6	1.900023E-6	0.113688	-0.826337	3.303313	3.405101	29.951318	-3.997537	7.212500E-6	0.000687
8.012500E-6	2.049207E-6	7.872736E-6	2.000521E-6	0.124094	-0.898187	3.667965	3.776335	30.431318	-4.083742	8.012500E-6	0.000727
8.812500E-6	2.161939E-6	8.593376E-6	2.105006E-6	0.135455	-0.968350	4.075153	4.188624	30.922586	-4.208349	8.812500E-6	0.000767
9.612500E-6	2.273095E-6	9.379995E-6	2.213534E-6	0.147853	-1.035033	4.529426	4.646181	31.424361	-4.376116	9.612500E-6	0.000807
1.041250E-5	2.405460E-6	1.023873E-5	2.326160E-6	0.161388	-1.095933	5.035199	5.153086	31.929707	-4.594442	1.041250E-5	0.000854
1.121250E-5	2.443972E-6	1.117593E-5	2.442890E-6	0.176160	-1.148346	5.597418	5.713999	32.436386	-4.874331	1.121250E-5	0.000867
1.201250E-5	2.539760E-6	1.219893E-5	2.563768E-6	0.192285	-1.189003	6.221095	6.333700	32.939126	-5.232196	1.201250E-5	0.000901
1.281250E-5	2.683992E-6	1.331561E-5	2.688813E-6	0.209886	-1.214067	6.911441	7.017263	33.433678	-5.692802	1.281250E-5	0.000953
1.441250E-5	2.824381E-6	1.453439E-5	2.818013E-6	0.229099	-1.219060	7.673692	7.769920	33.915103	-6.294760	1.441250E-5	0.001002
1.601250E-5	2.903824E-6	1.586502E-5	2.951400E-6	0.250070	-1.198847	8.513276	8.597273	34.379461	-7.101222	1.601250E-5	0.001031
1.761250E-5	3.022158E-6	1.731706E-5	3.088891E-6	0.272963	-1.147538	9.435324	9.504850	34.821054	-8.222231	1.761250E-5	0.001073
1.921250E-5	3.074270E-6	1.890249E-5	3.230531E-6	0.297948	-1.058535	10.445057	10.498558	35.236163	-9.867467	1.921250E-5	0.001091
2.081250E-5	3.152793E-6	2.063255E-5	3.376192E-6	0.325221	-0.924432	11.547380	11.584323	35.619866	-12.491330	2.081250E-5	0.001119
2.241250E-5	3.300199E-6	2.252135E-5	3.525884E-6	0.354989	-0.737032	12.747066	12.768356	35.968324	-17.295131	2.241250E-5	0.001171
2.401250E-5	3.482920E-6	2.458276E-5	3.679484E-6	0.387487	-0.487339	14.048033	14.056483	36.276029	-28.826009	2.401250E-5	0.001236
2.561250E-5	3.737848E-6	2.683312E-5	3.836942E-6	0.422959	-0.165657	15.453666	15.454554	36.539165	-93.287368	2.561250E-5	0.001327
2.881250E-5	4.014851E-6	2.928927E-5	3.998124E-6	0.461673	0.238470	16.966919	16.968595	36.754577	71.149074	2.881250E-5	0.001425
3.201250E-5	4.224555E-6	3.197039E-5	4.162934E-6	0.503932	0.736168	18.589583	18.604154	36.917960	25.251824	3.201250E-5	0.001499
3.521250E-5	4.388876E-6	3.489678E-5	4.331223E-6	0.550058	1.339148	20.322737	20.366810	37.026685	15.175867	3.521250E-5	0.001558
3.841250E-5	4.511998E-6	3.809119E-5	4.502859E-6	0.600408	2.059644	22.166229	22.261713	37.077619	10.762166	3.841250E-5	0.001601
4.161250E-5	4.644110E-6	4.157777E-5	4.677661E-6	0.655374	2.910108	24.118231	24.293164	37.067614	8.287743	4.161250E-5	0.001648
4.481250E-5	4.820751E-6	4.538415E-5	4.855493E-6	0.715368	3.903205	26.175974	26.465385	36.995498	6.706277	4.481250E-5	0.001711
4.801250E-5	5.049247E-6	4.953831E-5	5.036109E-6	0.780853	5.051560	28.334837	28.781613	36.859211	5.609126	4.801250E-5	0.001792
5.121250E-5	5.254256E-6	5.407315E-5	5.219347E-6	0.852323	6.367863	30.589537	31.245311	36.659022	4.803736	5.121250E-5	0.001865
5.761250E-5	5.496391E-6	5.902243E-5	5.404951E-6	0.930347	7.864157	32.931989	33.857951	36.392812	4.187606	5.761250E-5	0.001951
6.401250E-5	5.724110E-6	6.442591E-5	5.592757E-6	1.015505	9.551926	35.353332	36.620997	36.061850	3.701173	6.401250E-5	0.002032
7.041250E-5	5.918082E-6	7.032242E-5	5.782432E-6	1.108458	11.442106	37.843223	39.535191	35.666834	3.307365	7.041250E-5	0.002100
7.681250E-5	6.098479E-6	7.676030E-5	5.973826E-6	1.209935	13.544014	40.388640	42.599091	35.207762	2.982029	7.681250E-5	0.002164
8.321250E-5	6.287593E-6	8.378628E-5	6.166597E-6	1.320684	15.865925	42.976184	45.811352	34.687607	2.708710	8.321250E-5	0.002232
8.961250E-5	6.415891E-6	9.145564E-5	6.360517E-6	1.441565	18.415135	45.591388	49.170029	34.108778	2.475756	8.961250E-5	0.002277
9.601250E-5	6.620937E-6	9.982768E-5	6.555320E-6	1.573538	21.196497	48.217234	52.670610	33.472719	2.274774	9.601250E-5	0.002350
0.000102	6.817866E-6	0.000109	6.750706E-6	1.717586	24.212979	50.836412	56.308163	32.783315	2.099552	0.000102	0.002420
0.000115	7.002453E-6	0.000119	6.946382E-6	1.874809	27.465634	53.430763	60.076680	32.044158	1.945368	0.000115	0.002485
0.000128	7.227178E-6	0.000130	7.142068E-6	2.046409	30.953987	55.982263	63.970017	31.259646	1.808564	0.000128	0.002565
0.000141	7.438817E-6	0.000142	7.337505E-6	2.233743	34.674439	58.471215	67.979407	30.432954	1.686292	0.000141	0.002640
0.000154	7.607699E-6	0.000155	7.532380E-6	2.438212	38.621416	60.878880	72.096129	29.569256	1.576298	0.000154	0.002700
0.000166	7.788299E-6	0.000169	7.726394E-6	2.661399	42.786924	63.186285	76.310075	28.672920	1.476766	0.000166	0.002764
0.000179	7.922935E-6	0.000184	7.919250E-6	2.905001	47.161139	65.375547	80.611011	27.749046	1.386216	0.000179	0.002812
0.000192	8.068451E-6	0.000201	8.110752E-6	3.170918	51.732064	67.429278	84.987729	26.802250	1.303433	0.000192	0.002864
0.000205	8.249616E-6	0.000220	8.300523E-6	3.461209	56.484271	69.330266	89.426834	25.836880	1.227426	0.000205	0.002928
0.000230	8.442358E-6	0.000240	8.488394E-6	3.778008	61.402027	71.064412	93.916769	24.858805	1.157363	0.000230	0.002996
0.000256	8.653043E-6	0.000262	8.674034E-6	4.123817	66.467724	72.618143	98.444669	23.872221	1.092532	0.000256	0.003071
0.000282	8.850207E-6	0.000286	8.857285E-6	4.501299	71.662091	73.979812	102.997417	22.881711	1.032342	0.000282	0.003141
0.000307	9.002410E-6	0.000312	9.037841E-6	4.913365	76.964342	75.139534	107.561422	21.891599	0.976290	0.000307	0.003195
0.000333	9.143832E-6	0.000340	9.215528E-6	5.363161	82.352440	76.089505	112.122866	20.906116	0.923950	0.000333	0.003245
0.000358	9.252573E-6	0.000371	9.390163E-6	5.854085	87.804669	76.824650	116.669134	19.929524	0.874949	0.000358	0.003284
0.000384	9.366068E-6	0.000405	9.561556E-6	6.389964	93.298330	77.341428	121.186942	18.965199	0.828969	0.000384	0.003324
0.000410	9.498439E-6	0.000442	9.729536E-6	6.974864	98.811071	77.639022	125.664018	18.016698	0.785732	0.000410	0.003371
0.000461	9.656145E-6	0.000483	9.893989E-6	7.613299	104.321369	77.718755	130.089019	17.087075	0.744994	0.000461	0.003427
0.000512	9.826016E-6	0.000527	1.005475E-5	8.310271	109.806427	77.583365	134.449358	16.178697	0.706547	0.000512	0.003487
0.000563	9.992341E-6	0.000575	1.021176E-5	9.070938	115.245702	77.238799	138.735013	15.294451	0.670210	0.000563	0.003546
0.000614	1.012544E-5	0.000628	1.036491E-5	9.901222	120.619693	76.692216	142.936371	14.436236	0.635818	0.000614	0.003594
0.000666	1.024328E-5	0.000686	1.051418E-5	10.807533	125.909710	75.952566	147.044372	13.605730	0.603230	0.000666	0.003635
0.000717	1.033975E-5	0.000748	1.065953E-5	11.796797	131.099321	75.030648	151.051746	12.804471	0.572319	0.000717	0.003670
0.000768	1.045152E-5	0.000817	1.080094E-5	12.876784	136.171283	73.938003	154.949820	12.033270	0.542978	0.000768	0.003709
0.000819	1.057807E-5	0.000892	1.093845E-5	14.055326	141.114003	72.688802	158.735074	11.293589	0.515107	0.000819	0.003754
0.000922	1.071216E-5	0.000973	1.107210E-5	15.342141	145.913841	71.296189	162.400725	10.585271	0.488618	0.000922	0.003802
0.001024	1.087307E-5	0.001062	1.120194E-5	16.746530	150.560780	69.775964	165.943466	9.909125	0.463441	0.001024	0.003859
0.001126	1.102452E-5	0.001160	1.132805E-5	18.279366	155.047476	68.143578	169.361351	9.265165	0.439501	0.001126	0.003913
0.001229	1.115927E-5	0.001266	1.145058E-5	19.952725	159.366325	66.414667	172.651480	8.653027	0.416742	0.001229	0.003961
0.001331	1.129417E-5	0.001382	1.156965E-5	21.778873	163.514279	64.605844	175.814774	8.072721	0.395108	0.001331	0.004008
0.001434	1.139980E-5	0.001508	1.168544E-5	23.772570	167.488142	62.732601	178.850935	7.523416	0.374550	0.001434	0.004046
0.001536	1.150708E-5	0.001646	1.179810E-5	25.948827	171.286361	60.811203	181.760887	7.004590	0.355027	0.001536	0.004084
0.001638	1.163386E-5	0.001797	1.190789E-5	28.324042	174.910184	58.857429	184.547472	6.515577	0.336501	0.001638	0.004129
0.001843	1.177829E-5	0.001961	1.201501E-5	30.916859	178.360959	56.886314	187.212939	6.055367	0.318939	0.001843	0.004180
0.002048	1.193107E-5	0.002141	1.211974E-5	33.746472	181.643519	54.912687	189.762407	5.623178	0.302310	0.002048	0.004234
0.002253	1.208628E-5	0.002337	1.222231E-5	36.835752	184.762101	52.950077	192.199751	5.217750	0.286585	0.002253	0.004290
0.002458	1.222587E-5	0.002551	1.232308E-5	40.207839	187.722362	51.012119	194.530001	4.838111	0.271742	0.002458	0.004339
0.002662	1.237185E-5	0.002784	1.242235E-5	43.888311	190.531659	49.111362	196.759343	4.483183	0.257760	0.002662	0.004391
0.002867	1.249955E-5	0.003039	1.252044E-5	47.905897	193.197212	47.259471	198.893490	4.151754	0.244618	0.002867	0.004436
0.003072	1.263834E-5	0.003317	1.261774E-5	52.290443	195.728640	45.467381	200.940248	3.842772	0.232298	0.003072	0.004485
0.003277	1.278634E-5	0.003621	1.271461E-5	57.077376	198.134247	43.744882	202.905876	3.554926	0.220784	0.003277	0.004538
0.003686	1.295077E-5	0.003953	1.281149E-5	62.301805	200.424217	42.101476	204.798440	3.287199	0.210062	0.003686	0.004596
0.004096	1.313006E-5	0.004314	1.290876E-5	68.004989	202.608416	40.545391	206.625504	3.038387	0.200117	0.004096	0.004660
0.004506	1.330292E-5	0.004709	1.300688E-5	74.230343	204.696964	39.084399	208.394907	2.807409	0.190938	0.004506	0.004721
0.004915	1.343015E-5	0.005140	1.310633E-5	81.025155	206.700563	37.725420	210.115040	2.593208	0.182512	0.004915	0.004766
0.005325	1.353430E-5	0.005611	1.320757E-5	88.442297	208.629266	36.474668	211.793702	2.394711	0.174830	0.005325	0.004803
0.005734	1.360893E-5	0.006125	1.331115E-5	96.536786	210.494686	35.337677	213.440306	2.210974	0.167879	0.005734	0.004830
0.006144	1.366243E-5	0.006685	1.341755E-5	105.375179	212.306044	34.319292	215.062014	2.040917	0.161650	0.006144	0.004849
0.006554	1.369964E-5	0.007297	1.352732E-5	115.019621	214.074459	33.424227	216.668071	1.883749	0.156134	0.006554	0.004862
0.007373	1.373286E-5	0.007965	1.364109E-5	125.547780	215.810355	32.656172	218.267118	1.738518	0.151319	0.007373	0.004874
0.008192	1.378371E-5	0.008694	1.375941E-5	137.042238	217.522699	32.018744	219.866606	1.604371	0.147197	0.008192	0.004892
0.009011	1.386815E-5	0.009490	1.388290E-5	149.584712	219.222110	31.515265	221.475835	1.480605	0.143760	0.009011	0.004922
0.009830	1.398054E-5	0.010359	1.401228E-5	163.277641	220.917882	31.148437	223.102971	1.366402	0.140996	0.009830	0.004962
0.010650	1.414703E-5	0.011307	1.414814E-5	178.225405	222.618742	30.920957	224.755889	1.261077	0.138896	0.010650	0.005021
0.011469	1.431109E-5	0.012342	1.429128E-5	194.538955	224.333946	30.835323	226.443230	1.163999	0.137453	0.011469	0.005079
0.012288	1.447842E-5	0.013472	1.444242E-5	212.347283	226.071666	30.893776	228.172793	1.074527	0.136655	0.012288	0.005138
0.013107	1.463157E-5	0.014705	1.460236E-5	231.783114	227.840516	31.098594	229.953089	0.992105	0.136493	0.013107	0.005193
0.014746	1.472568E-5	0.016051	1.477193E-5	252.999989	229.648441	31.451986	231.792222	0.916175	0.136957	0.014746	0.005226
0.016384	1.479087E-5	0.017520	1.495200E-5	276.161578	231.502521	31.956077	233.697685	0.846235	0.138038	0.016384	0.005249
0.018022	1.490837E-5	0.019124	1.514352E-5	301.438139	233.410752	32.613224	235.678174	0.781846	0.139725	0.018022	0.005291
0.019661	1.510524E-5	0.020874	1.534743E-5	329.033153	235.379594	33.425702	237.741100	0.722545	0.142008	0.019661	0.005361
0.021299	1.542671E-5	0.022785	1.556485E-5	359.149150	237.416574	34.396143	239.895236	0.667954	0.144877	0.021299	0.005475
0.022938	1.575051E-5	0.024871	1.579684E-5	392.029377	239.527587	35.527144	242.147977	0.617678	0.148322	0.022938	0.005590
0.024576	1.597187E-5	0.027148	1.604462E-5	427.914861	241.719001	36.821439	244.507452	0.571393	0.152332	0.024576	0.005669
0.026214	1.612994E-5	0.029633	1.630945E-5	467.080429	243.997570	38.282379	246.982499	0.528779	0.156897	0.026214	0.005725
0.029491	1.629748E-5	0.032345	1.659261E-5	509.838532	246.368696	39.913297	249.580860	0.489529	0.162006	0.029491	0.005784
0.032768	1.650723E-5	0.035306	1.689567E-5	556.505806	248.838788	41.718011	252.311583	0.453385	0.167651	0.032768	0.005859
0.036045	1.684607E-5	0.038537	1.722013E-5	607.452989	251.412667	43.700330	255.182382	0.420086	0.173819	0.036045	0.005979
0.039322	1.723677E-5	0.042065	1.756773E-5	663.050796	254.096903	45.864843	258.203059	0.389417	0.180501	0.039322	0.006117
0.042598	1.756315E-5	0.045916	1.794024E-5	723.747779	256.896420	48.216393	261.382078	0.361151	0.187688	0.042598	0.006233
0.045875	1.777760E-5	0.050118	1.833955E-5	789.995546	259.817060	50.760205	264.729113	0.335102	0.195369	0.045875	0.006309
0.049152	1.801984E-5	0.054706	1.876796E-5	862.310945	262.863976	53.501938	268.253476	0.311087	0.203535	0.049152	0.006395
0.052429	1.831543E-5	0.059714	1.922762E-5	941.240492	266.043060	56.447909	271.965579	0.288944	0.212176	0.052429	0.006500
0.058982	1.875471E-5	0.065180	1.972114E-5	1027.401195	269.359881	59.605066	275.875895	0.268518	0.221284	0.058982	0.006656
0.065536	1.938294E-5	0.071147	2.025128E-5	1121.457870	272.819468	62.980410	279.994633	0.249670	0.230850	0.065536	0.006879
0.072090	2.004510E-5	0.077659	2.082077E-5	1224.116632	276.427582	66.581642	284.333120	0.232276	0.240865	0.072090	0.007114
0.078643	2.065122E-5	0.084769	2.143317E-5	1336.167079	280.190183	70.417415	288.903359	0.216218	0.251320	0.078643	0.007329
0.085197	2.131792E-5	0.092528	2.209176E-5	1458.475639	284.113223	74.497018	293.717771	0.201387	0.262209	0.085197	0.007566
0.091750	2.182834E-5	0.100998	2.280051E-5	1591.983878	288.202039	78.829852	298.788489	0.187683	0.273523	0.091750	0.007747
0.098304	2.233382E-5	0.110242	2.356364E-5	1737.689841	292.464358	83.427194	304.130724	0.175020	0.285256	0.098304	0.007926
0.104858	2.299968E-5	0.120333	2.438581E-5	1896.764538	296.905162	88.300080	309.757291	0.163308	0.297402	0.104858	0.008163
0.117965	2.384672E-5	0.131349	2.527226E-5	2070.377555	301.532628	93.461146	315.684829	0.152477	0.309954	0.117965	0.008463
0.131072	2.489559E-5	0.143372	2.622834E-5	2259.915797	306.352333	98.923152	321.927852	0.142451	0.322906	0.131072	0.008836
0.144179	2.610173E-5	0.156495	2.726036E-5	2466.782566	311.372351	104.700142	328.503974	0.133171	0.336254	0.144179	0.009264
0.157286	2.577441E-5	0.170821	2.837518E-5	2692.593709	316.599959	110.807255	335.430740	0.124575	0.349991	0.157286	0.009148
0.170394	2.791253E-5	0.186457	2.958019E-5	2939.071010	322.042768	117.260224	342.726574	0.116611	0.364114	0.170394	0.009906
0.183501	3.413423E-5	0.203526	3.088384E-5	3208.086861	327.709601	124.076476	350.411979	0.109228	0.378617	0.183501	0.012114
0.399815	4.491528E-5	0.222158	3.229515E-5	3501.724010	333.610445	131.275634	358.509723	0.102381	0.393500	0.399815	0.015941
0.599722	5.961083E-5	0.242494	3.382413E-5	3822.302395	339.751728	138.875840	367.039147	0.096026	0.408757	0.599722	0.021156
0.799630	7.390613E-5	0.264690	3.548200E-5	4172.144436	346.146400	146.899574	376.027679	0.090128	0.424386	0.799630	0.026230
0.999537	8.988200E-5	0.288916	3.728116E-5	4554.090879	352.801400	155.368088	385.497173	0.084649	0.440384	0.999537	0.031900
1.199450	0.000108	0.315366	3.923584E-5	4970.908007	359.731499	164.307460	395.479067	0.079559	0.456750	1.199450	0.038258
1.399350	0.000122	0.344234	4.136071E-5	5426.004623	366.943415	173.741224	405.996900	0.074824	0.473482	1.399350	0.043204
1.599260	0.000137	0.375742	4.367280E-5	5922.618194	374.453106	183.698361	417.085383	0.070422	0.490578	1.599260	0.048719
1.799170	0.000153	0.410137	4.619123E-5	6464.763924	382.272337	194.209091	428.776528	0.066325	0.508039	1.799170	0.054230
1.999070	0.000169	0.447679	4.893682E-5	7056.576640	390.414102	205.304326	441.104338	0.062510	0.525863	1.999070	0.060090
2.198980	0.000186	0.488661	5.193315E-5	7702.564258	398.891557	217.016540	454.104231	0.058955	0.544049	2.198980	0.065951
2.398890	0.000204	0.533388	5.520555E-5	8407.595965	407.721377	229.382693	467.817423	0.055642	0.562597	2.398890	0.072255
2.598800	0.000221	0.582212	5.878374E-5	9177.181943	416.919690	242.442149	482.286454	0.052553	0.581508	2.598800	0.078314
2.798700	0.000238	0.635510	6.270006E-5	10017.261905	426.503023	256.235971	497.555727	0.049670	0.600783	2.798700	0.084413
2.998610	0.000256	0.693690	6.699060E-5	10934.262983	436.488218	270.807074	513.671526	0.046978	0.620422	2.998610	0.090889
3.198520	0.000275	0.757184	7.169450E-5	11935.127911	446.894849	286.202694	530.685395	0.044464	0.640425	3.198520	0.097446
3.398430	0.000294	0.826491	7.685776E-5	13027.568371	457.745551	302.476059	548.655407	0.042115	0.660795	3.398430	0.104210
3.598330	0.000312	0.902154	8.253143E-5	14220.215629	469.055735	319.676304	567.632118	0.039917	0.681532	3.598330	0.110650
3.798240	0.000331	0.984732	8.877006E-5	15521.705987	480.855827	337.866944	587.687330	0.037862	0.702637	3.798240	0.117452
3.998150	0.000350	1.074868	9.563730E-5	16942.712872	493.161873	357.104600	608.877926	0.035937	0.724112	3.998150	0.124143
4.198060	0.000370	1.173265	0.000103	18493.467299	506.005344	377.459076	631.281841	0.034135	0.745959	4.198060	0.131194
4.397960	0.000389	1.280651	0.000112	20186.396575	519.408848	398.998794	654.969915	0.032446	0.768179	4.397960	0.138166
4.597870	0.000408	1.397882	0.000121	22034.126317	533.405460	421.803338	680.029000	0.030863	0.790774	4.597870	0.144920
4.797780	0.000429	1.525845	0.000131	24051.314695	548.019187	445.948747	706.537553	0.029376	0.813747	4.797780	0.152253
4.997690	0.000450	1.665533	0.000142	26252.791553	563.286921	471.525382	734.593998	0.027982	0.837096	4.997690	0.159546
5.197590	0.000471	1.817991	0.000155	28655.941150	579.239755	498.625013	764.294183	0.026671	0.860827	5.197590	0.166986
5.397500	0.000492	1.984393	0.000168	31278.945212	595.915793	527.349421	795.746846	0.025440	0.884939	5.397500	0.174607
5.597410	0.000509	2.166035	0.000184	34142.193256	613.350630	557.803652	829.062066	0.024283	0.909437	5.597410	0.180634
5.797320	0.000535	2.364298	0.000201	37267.370773	631.587872	590.105969	864.365834	0.023194	0.934321	5.797320	0.189781
5.997220	0.000544	2.580733	0.000219	40678.914102	650.665151	624.374566	901.780870	0.022168	0.959594	5.997220	0.193225
6.197130	0.000570	2.816990	0.000240	44402.318017	670.634226	660.748414	941.455645	0.021203	0.985259	6.197130	0.202155
6.397040	0.000595	3.074834	0.000263	48467.096008	691.533829	699.359958	983.525997	0.020293	1.011317	6.397040	0.211062
6.596950	0.000605	3.356286	0.000289	52903.087368	713.428514	740.377086	1028.172395	0.019435	1.037773	6.596950	0.214663
6.796850	0.000628	3.663504	0.000318	57746.515995	736.354495	783.945019	1075.540671	0.018625	1.064630	6.796850	0.222845
6.996760	0.000655	3.998880	0.000350	63031.769869	760.387400	830.259572	1125.841887	0.017861	1.091890	6.996760	0.232545
7.196670	0.000674	4.364923	0.000385	68802.332096	785.572046	879.494897	1179.251760	0.017140	1.119560	7.196670	0.239108
7.396580	0.000700	4.764490	0.000424	75099.838126	811.986018	931.868731	1236.001871	0.016458	1.147641	7.396580	0.248586
7.596480	0.000719	5.200614	0.000468	81974.434138	839.695643	987.602180	1296.320500	0.015814	1.176143	7.596480	0.255083
7.796390	0.000737	5.676652	0.000517	89478.026639	868.783110	1046.944726	1360.469533	0.015205	1.205070	7.796390	0.261471
7.996300	0.000762	6.196230	0.000571	97668.405231	899.346782	1110.184226	1428.752480	0.014629	1.234434	7.996300	0.270577
8.196210	0.000795	6.763482	0.000631	106609.862039	931.487227	1177.625336	1501.489223	0.014084	1.264242	8.196210	0.282086
8.396110	0.000806	7.382516	0.000698	116368.699025	965.351007	1249.650121	1579.090875	0.013570	1.294503	8.396110	0.286143
8.596020	0.000828	8.058427	0.000772	127020.646498	1001.126558	1326.725809	1662.063704	0.013085	1.325233	8.596020	0.293686
