MicroRheology Analysis v9.2.8
10/03/18 5:37:53 PM

Correlation Mode:	Cross
Geometry:	Transmission
Multi-Tau Duration (s):	120
Echo Duration (s):	60
Wavelength (nm):	685.0
Temperature (°C):	30.04
Cuvette Thickness (mm):	10.00
Absorption Length (mm):	Inf
Solvent:	Water
Solvent Refractive Index:	1.329
Particle Radius (nm):	465.0
Mean Count Rate (kHz):	169.2
l* (microns):	969.79



Lag Time (s)	Mean Square Displacement (micron^2)	Fit Lag Time (s)	Mean Square Displacement Fit (micron^2)	Frequency(rad/s)	G1 (Pa)	G2 (Pa)	G* (Pa)	Complex Viscosity (Pa s)	Loss Tangent (-)	Time (s)	Creep Compliance (1/Pa)

2.812500E-6	1.007599E-6	2.812508E-6	1.050245E-6	0.333483	0.640217	3.272705	3.334738	9.999738	5.111869	2.812500E-6	0.000352
3.012500E-6	1.132555E-6	3.101298E-6	1.135585E-6	0.367730	0.467256	3.570185	3.600632	9.791503	7.640740	3.012500E-6	0.000395
3.212500E-6	1.236152E-6	3.419745E-6	1.224850E-6	0.405482	0.291125	3.894745	3.905611	9.632011	13.378273	3.212500E-6	0.000431
3.612500E-6	1.318327E-6	3.770912E-6	1.318076E-6	0.447119	0.111554	4.253222	4.254685	9.515787	38.126982	3.612500E-6	0.000460
4.012500E-6	1.416704E-6	4.158123E-6	1.415285E-6	0.493034	-0.071517	4.652821	4.653370	9.438241	-65.059118	4.012500E-6	0.000494
4.412500E-6	1.471851E-6	4.585034E-6	1.516499E-6	0.543653	-0.257927	5.101614	5.108130	9.395945	-19.779313	4.412500E-6	0.000514
4.812500E-6	1.537938E-6	5.055850E-6	1.621775E-6	0.599481	-0.447065	5.607952	5.625744	9.384354	-12.543926	4.812500E-6	0.000537
5.212500E-6	1.569247E-6	5.575017E-6	1.731127E-6	0.661031	-0.637726	6.181320	6.214130	9.400667	-9.692755	5.212500E-6	0.000548
5.612500E-6	1.756933E-6	6.147444E-6	1.844569E-6	0.728913	-0.827888	6.831592	6.881573	9.440876	-8.251833	5.612500E-6	0.000613
6.012500E-6	1.866785E-6	6.778592E-6	1.962123E-6	0.803753	-1.014542	7.569735	7.637420	9.502201	-7.461232	6.012500E-6	0.000651
6.412500E-6	1.851033E-6	7.474611E-6	2.083829E-6	0.886274	-1.193523	8.407713	8.492004	9.581694	-7.044447	6.412500E-6	0.000646
7.212500E-6	1.925627E-6	8.242097E-6	2.209687E-6	0.977290	-1.359111	9.357701	9.455885	9.675615	-6.885163	7.212500E-6	0.000672
8.012500E-6	2.039297E-6	9.088488E-6	2.339720E-6	1.077637	-1.503953	10.432999	10.540842	9.781437	-6.937051	8.012500E-6	0.000712
8.812500E-6	2.225830E-6	1.002166E-5	2.473896E-6	1.188288	-1.618739	11.647280	11.759228	9.895940	-7.195279	8.812500E-6	0.000777
9.612500E-6	2.385823E-6	1.105064E-5	2.612222E-6	1.310299	-1.691967	13.014525	13.124047	10.016067	-7.691949	9.612500E-6	0.000833
1.041250E-5	2.630609E-6	1.218545E-5	2.754705E-6	1.444840	-1.709713	14.548613	14.648729	10.138651	-8.509389	1.041250E-5	0.000918
1.121250E-5	2.746768E-6	1.343649E-5	2.901261E-6	1.593189	-1.655467	16.263149	16.347189	10.260671	-9.823907	1.121250E-5	0.000959
1.201250E-5	2.860242E-6	1.481624E-5	3.051913E-6	1.756771	-1.509965	18.171070	18.233699	10.379100	-12.034101	1.201250E-5	0.000998
1.281250E-5	2.915823E-6	1.633743E-5	3.206558E-6	1.937172	-1.251128	20.283248	20.321798	10.490443	-16.211969	1.281250E-5	0.001018
1.441250E-5	2.995534E-6	1.801501E-5	3.365170E-6	2.136072	-0.854175	22.609557	22.625686	10.592195	-26.469457	1.441250E-5	0.001045
1.601250E-5	3.024701E-6	1.986490E-5	3.527658E-6	2.355419	-0.291654	25.156283	25.157974	10.680889	-86.253983	1.601250E-5	0.001056
1.761250E-5	3.221474E-6	2.190447E-5	3.693894E-6	2.597258	0.466167	27.927434	27.931324	10.754157	59.908699	1.761250E-5	0.001124
1.921250E-5	3.402289E-6	2.415382E-5	3.863817E-6	2.863941	1.451011	30.922546	30.956571	10.809082	21.311030	1.921250E-5	0.001187
2.081250E-5	3.537379E-6	2.663397E-5	4.037255E-6	3.157992	2.696086	34.137656	34.243954	10.843584	12.661930	2.081250E-5	0.001234
2.241250E-5	3.670372E-6	2.936840E-5	4.214047E-6	3.482303	4.234982	37.561863	37.799850	10.854843	8.869428	2.241250E-5	0.001281
2.401250E-5	3.835364E-6	3.238441E-5	4.394097E-6	3.839839	6.101281	41.181102	41.630623	10.841761	6.749583	2.401250E-5	0.001338
2.561250E-5	3.976891E-6	3.570920E-5	4.577122E-6	4.234128	8.327394	44.973930	45.738385	10.802314	5.400720	2.561250E-5	0.001388
2.881250E-5	4.194143E-6	3.937585E-5	4.762988E-6	4.668856	10.943871	48.914907	50.124211	10.735866	4.469616	2.881250E-5	0.001464
3.201250E-5	4.448614E-6	4.341925E-5	4.951459E-6	5.148303	13.977401	52.970480	54.783570	10.641093	3.789723	3.201250E-5	0.001552
3.521250E-5	4.599772E-6	4.787718E-5	5.142253E-6	5.676878	17.451182	57.104859	59.711880	10.518436	3.272263	3.521250E-5	0.001605
3.841250E-5	4.740769E-6	5.279362E-5	5.335167E-6	6.259849	21.382012	61.273918	64.897484	10.367260	2.865676	3.841250E-5	0.001654
4.161250E-5	4.902043E-6	5.821392E-5	5.529858E-6	6.902533	25.781669	65.433458	70.329453	10.188934	2.537984	4.161250E-5	0.001711
4.481250E-5	5.084129E-6	6.419198E-5	5.726107E-6	7.611363	30.653814	69.532636	75.989761	9.983726	2.268319	4.481250E-5	0.001774
4.801250E-5	5.257176E-6	7.078274E-5	5.923531E-6	8.392893	35.994608	73.520840	81.859182	9.753393	2.042551	4.801250E-5	0.001835
5.121250E-5	5.469217E-6	7.805162E-5	6.121881E-6	9.254652	41.792859	77.346669	87.915586	9.499610	1.850715	5.121250E-5	0.001909
5.761250E-5	5.632600E-6	8.606548E-5	6.320753E-6	10.204961	48.028381	80.958477	94.132887	9.224228	1.685638	5.761250E-5	0.001966
6.401250E-5	5.808784E-6	9.490212E-5	6.519838E-6	11.252780	54.673243	84.307579	100.483488	8.929659	1.542026	6.401250E-5	0.002027
7.041250E-5	5.989955E-6	0.000105	6.718798E-6	12.408126	61.692759	87.349011	106.938517	8.618426	1.415871	7.041250E-5	0.002090
7.681250E-5	6.200236E-6	0.000115	6.917305E-6	13.682170	69.044829	90.041699	113.466717	8.293035	1.304105	7.681250E-5	0.002164
8.321250E-5	6.363254E-6	0.000127	7.114937E-6	15.087029	76.682241	92.351251	120.037159	7.956315	1.204337	8.321250E-5	0.002221
8.961250E-5	6.496750E-6	0.000140	7.311385E-6	16.636343	84.551273	94.248419	126.616280	7.610824	1.114690	8.961250E-5	0.002267
9.601250E-5	6.639920E-6	0.000155	7.506315E-6	18.344561	92.596235	95.713274	133.173171	7.259545	1.033663	9.601250E-5	0.002317
0.000102	6.793028E-6	0.000171	7.699325E-6	20.228223	100.758982	96.732547	139.676620	6.905037	0.960039	0.000102	0.002371
0.000115	6.961083E-6	0.000188	7.890173E-6	22.305255	108.980467	97.301372	146.096883	6.549886	0.892833	0.000115	0.002429
0.000128	7.159034E-6	0.000207	8.078486E-6	24.595433	117.203564	97.423221	152.407216	6.196566	0.831231	0.000128	0.002498
0.000141	7.354237E-6	0.000229	8.264013E-6	27.121014	125.370979	97.107989	158.580718	5.847153	0.774565	0.000141	0.002567
0.000154	7.526744E-6	0.000252	8.446422E-6	29.905553	133.431233	96.374468	164.596270	5.503870	0.722278	0.000154	0.002627
0.000166	7.683016E-6	0.000278	8.625488E-6	32.976408	141.335302	95.246045	170.433203	5.168337	0.673901	0.000166	0.002681
0.000179	7.793689E-6	0.000307	8.801009E-6	36.362610	149.038947	93.752730	176.074366	4.842182	0.629049	0.000179	0.002720
0.000192	7.915458E-6	0.000338	8.972781E-6	40.096229	156.504291	91.929213	181.506401	4.526770	0.587391	0.000192	0.002762
0.000205	8.056479E-6	0.000373	9.140612E-6	44.212870	163.701420	89.813737	186.720813	4.223223	0.548644	0.000205	0.002812
0.000230	8.228186E-6	0.000411	9.304421E-6	48.753044	170.603706	87.446229	191.709331	3.932254	0.512569	0.000230	0.002872
0.000256	8.435053E-6	0.000453	9.464097E-6	53.758933	177.192675	84.869807	196.469153	3.654633	0.478969	0.000256	0.002944
0.000282	8.602253E-6	0.000500	9.619629E-6	59.278765	183.456240	82.127364	201.000239	3.390763	0.447667	0.000282	0.003002
0.000307	8.723734E-6	0.000551	9.770971E-6	65.365471	189.387828	79.261841	205.305112	3.140880	0.418516	0.000307	0.003044
0.000333	8.830812E-6	0.000608	9.918175E-6	72.076864	194.987606	76.315432	209.390095	2.905094	0.391386	0.000333	0.003082
0.000358	8.925050E-6	0.000670	1.006135E-5	79.478209	200.259469	73.328475	213.262562	2.683283	0.366167	0.000358	0.003115
0.000384	9.032787E-6	0.000739	1.020059E-5	87.639226	205.212669	70.339907	216.933036	2.475296	0.342766	0.000384	0.003152
0.000410	9.166671E-6	0.000815	1.033613E-5	96.638108	209.860598	67.385820	220.413972	2.280818	0.321098	0.000410	0.003199
0.000461	9.296810E-6	0.000899	1.046817E-5	106.561173	214.219778	64.499634	223.719280	2.099445	0.301091	0.000461	0.003244
0.000512	9.444716E-6	0.000991	1.059699E-5	117.503058	218.309466	61.712002	226.864264	1.930709	0.282681	0.000512	0.003296
0.000563	9.595309E-6	0.001093	1.072291E-5	129.567957	222.151274	59.050569	229.865522	1.774092	0.265812	0.000563	0.003349
0.000614	9.732567E-6	0.001205	1.084632E-5	142.871228	225.768541	56.539905	232.740617	1.629024	0.250433	0.000614	0.003397
0.000666	9.855246E-6	0.001329	1.096765E-5	157.540592	229.185944	54.201598	235.507983	1.494904	0.236496	0.000666	0.003439
0.000717	9.948683E-6	0.001465	1.108738E-5	173.718387	232.427496	52.054649	238.185280	1.371100	0.223961	0.000717	0.003472
0.000768	1.003894E-5	0.001616	1.120602E-5	191.555292	235.518650	50.115720	240.791652	1.257035	0.212789	0.000768	0.003503
0.000819	1.014927E-5	0.001781	1.132416E-5	211.223743	238.484634	48.398614	243.346146	1.152078	0.202942	0.000819	0.003542
0.000922	1.027506E-5	0.001964	1.144243E-5	232.913851	241.349030	46.915258	245.866622	1.055612	0.194388	0.000922	0.003586
0.001024	1.042936E-5	0.002166	1.156150E-5	256.826019	244.136885	45.675741	248.372888	0.967086	0.187091	0.001024	0.003640
0.001126	1.058756E-5	0.002388	1.168212E-5	283.199079	246.870263	44.688126	250.882353	0.885887	0.181019	0.001126	0.003695
0.001229	1.071978E-5	0.002634	1.180505E-5	312.277104	249.571317	43.959554	253.413268	0.811501	0.176140	0.001229	0.003741
0.001331	1.084957E-5	0.002904	1.193115E-5	344.339581	252.261310	43.495696	255.983679	0.743405	0.172423	0.001331	0.003786
0.001434	1.094848E-5	0.003202	1.206129E-5	379.697800	254.959492	43.301302	258.610412	0.681095	0.169836	0.001434	0.003821
0.001536	1.104174E-5	0.003531	1.219644E-5	418.683344	257.684909	43.380538	261.310894	0.624125	0.168347	0.001536	0.003853
0.001638	1.116434E-5	0.003894	1.233762E-5	461.675703	260.454535	43.736858	264.101264	0.572049	0.167925	0.001638	0.003896
0.001843	1.131777E-5	0.004293	1.248588E-5	509.078266	263.285267	44.373557	266.998398	0.524474	0.168538	0.001843	0.003950
0.002048	1.148266E-5	0.004734	1.264243E-5	561.354489	266.191808	45.293542	270.017747	0.481011	0.170154	0.002048	0.004007
0.002253	1.166717E-5	0.005220	1.280844E-5	618.993479	269.188618	46.499764	273.175292	0.441322	0.172740	0.002253	0.004072
0.002458	1.181979E-5	0.005756	1.298525E-5	682.549232	272.289528	47.995442	276.487159	0.405080	0.176266	0.002458	0.004125
0.002662	1.196146E-5	0.006348	1.317427E-5	752.640798	275.506413	49.783725	279.968218	0.371981	0.180699	0.002662	0.004174
0.002867	1.207068E-5	0.006999	1.337697E-5	829.922758	278.851213	51.868110	283.634095	0.341760	0.186006	0.002867	0.004212
0.003072	1.218946E-5	0.007718	1.359498E-5	915.135800	282.335289	54.252696	287.500558	0.314162	0.192157	0.003072	0.004254
0.003277	1.232708E-5	0.008510	1.383003E-5	1009.099013	285.969554	56.942206	291.583608	0.288954	0.199120	0.003277	0.004302
0.003686	1.250176E-5	0.009384	1.408402E-5	1112.718994	289.763727	59.941632	295.898660	0.265924	0.206864	0.003686	0.004363
0.004096	1.269385E-5	0.010348	1.435897E-5	1226.970987	293.728217	63.256907	300.462480	0.244881	0.215359	0.004096	0.004430
0.004506	1.289452E-5	0.011410	1.465707E-5	1352.962803	297.871802	66.894286	305.290773	0.225646	0.224574	0.004506	0.004500
0.004915	1.305722E-5	0.012582	1.498073E-5	1491.867071	302.205464	70.861680	310.402191	0.208063	0.234482	0.004915	0.004557
0.005325	1.321246E-5	0.013874	1.533258E-5	1645.060610	306.737508	75.167273	315.813264	0.191977	0.245054	0.005325	0.004611
0.005734	1.331189E-5	0.015299	1.571543E-5	1813.964825	311.478357	79.820463	321.543268	0.177260	0.256263	0.005734	0.004646
0.006144	1.340169E-5	0.016869	1.613248E-5	2000.222867	316.438027	84.832214	327.611858	0.163788	0.268085	0.006144	0.004677
0.006554	1.350501E-5	0.018602	1.658716E-5	2205.630439	321.625141	90.213410	334.037708	0.151448	0.280492	0.006554	0.004713
0.007373	1.365188E-5	0.020512	1.708330E-5	2432.092275	327.051256	95.977183	340.843284	0.140144	0.293462	0.007373	0.004764
0.008192	1.385153E-5	0.022618	1.762519E-5	2681.821825	332.726179	102.137698	348.050025	0.129781	0.306972	0.008192	0.004834
0.009011	1.410418E-5	0.024940	1.821733E-5	2957.166228	338.662640	108.711458	355.683237	0.120278	0.321002	0.009011	0.004922
0.009830	1.435396E-5	0.027501	1.886508E-5	3260.830129	344.871132	115.715688	363.766708	0.111556	0.335533	0.009830	0.005009
0.010650	1.464342E-5	0.030325	1.957423E-5	3595.662776	351.363722	123.168862	372.326515	0.103549	0.350545	0.010650	0.005110
0.011469	1.487048E-5	0.033439	2.035118E-5	3964.841260	358.154228	131.092503	381.391787	0.096193	0.366022	0.011469	0.005190
0.012288	1.509312E-5	0.036872	2.120304E-5	4371.934836	365.257312	139.510897	390.993854	0.089433	0.381952	0.012288	0.005267
0.013107	1.533341E-5	0.040658	2.213809E-5	4820.900215	372.685154	148.448242	401.162193	0.083213	0.398321	0.013107	0.005351
0.014746	1.561191E-5	0.044832	2.316517E-5	5315.897702	380.455074	157.933109	411.933162	0.077491	0.415116	0.014746	0.005448
0.016384	1.596234E-5	0.049436	2.429458E-5	5861.770516	388.580384	167.994760	423.340234	0.072221	0.432329	0.016384	0.005571
0.018022	1.640727E-5	0.054512	2.553770E-5	6463.559076	397.082320	178.669167	435.427422	0.067367	0.449955	0.018022	0.005726
0.019661	1.686042E-5	0.060109	2.690734E-5	7127.288298	405.975376	189.992355	448.233311	0.062890	0.467990	0.019661	0.005884
0.021299	1.738458E-5	0.066282	2.841817E-5	7859.104176	415.279165	202.004385	461.803590	0.058760	0.486430	0.021299	0.006067
0.022938	1.777469E-5	0.073088	3.008615E-5	8666.035245	425.015525	214.752048	476.189709	0.054949	0.505280	0.022938	0.006203
0.024576	1.813851E-5	0.080592	3.192992E-5	9555.989773	435.200832	228.281879	491.439092	0.051427	0.524544	0.024576	0.006330
0.026214	1.854999E-5	0.088867	3.397017E-5	10537.172326	445.858084	242.647654	507.609412	0.048173	0.544226	0.026214	0.006474
0.029491	1.909339E-5	0.097992	3.623071E-5	11619.060253	457.009432	257.909390	524.761731	0.045164	0.564342	0.029491	0.006663
0.032768	1.981302E-5	0.108054	3.873825E-5	12812.034048	468.679637	274.134612	542.964444	0.042379	0.584908	0.032768	0.006914
0.036045	2.068493E-5	0.119148	4.152266E-5	14127.737497	480.886453	291.391272	562.281650	0.039800	0.605946	0.036045	0.007219
0.039322	2.151617E-5	0.131383	4.461834E-5	15578.270582	493.658866	309.761925	582.796299	0.037411	0.627482	0.039322	0.007509
0.042598	2.242738E-5	0.144874	4.806436E-5	17178.022017	507.013826	329.329875	604.583481	0.035195	0.649548	0.042598	0.007827
0.045875	2.304091E-5	0.159748	5.190337E-5	18941.682877	520.981077	350.195830	627.740712	0.033141	0.672185	0.045875	0.008041
0.049152	2.368806E-5	0.176153	5.618675E-5	20886.777454	535.576626	372.462370	652.357677	0.031233	0.695442	0.049152	0.008267
0.052429	2.454551E-5	0.194239	6.096886E-5	23031.257193	550.827914	396.251374	678.547376	0.029462	0.719374	0.052429	0.008566
0.058982	2.572739E-5	0.214185	6.631517E-5	25396.276051	566.750081	421.690874	706.419739	0.027816	0.744051	0.058982	0.008978
0.065536	2.731566E-5	0.236176	7.229561E-5	28003.985451	583.359448	448.922649	736.097677	0.026285	0.769547	0.065536	0.009533
0.072090	2.919796E-5	0.260428	7.899286E-5	30879.055478	600.678704	478.116189	767.730418	0.024862	0.795960	0.072090	0.010190
0.078643	3.090859E-5	0.287166	8.649689E-5	34050.198663	618.704867	509.438648	801.450840	0.023537	0.823395	0.078643	0.010787
0.085197	3.281721E-5	0.316657	9.491302E-5	37546.033254	637.452950	543.095335	837.435852	0.022304	0.851977	0.085197	0.011453
0.091750	3.421488E-5	0.349169	0.000104	41401.318607	656.917234	579.307310	875.863695	0.021155	0.881857	0.091750	0.011940
0.098304	3.567617E-5	0.385021	0.000115	45652.789928	677.080025	618.311637	916.922374	0.020085	0.913203	0.098304	0.012450
0.104858	3.767414E-5	0.424553	0.000127	50340.040216	697.926714	660.389467	960.841270	0.019087	0.946216	0.104858	0.013148
0.117965	4.046261E-5	0.468149	0.000140	55509.280799	719.413458	705.840549	1007.852471	0.018156	0.981133	0.117965	0.014121
0.131072	4.412813E-5	0.516216	0.000155	61209.134521	741.482982	754.998122	1058.215090	0.017289	1.018227	0.131072	0.015400
0.144179	4.855108E-5	0.569226	0.000172	67493.501275	764.066193	808.250177	1112.234461	0.016479	1.057827	0.144179	0.016944
0.157286	5.271929E-5	0.627672	0.000191	74424.195950	787.045700	866.002530	1170.214218	0.015724	1.100321	0.157286	0.018398
0.170394	5.698211E-5	0.692118	0.000212	82065.090326	810.299254	928.741896	1232.536567	0.015019	1.146171	0.170394	0.019886
0.183501	6.134293E-5	0.763184	0.000236	90492.467437	833.631467	996.972465	1299.575130	0.014361	1.195939	0.183501	0.021408
0.399815	0.000121	0.841547	0.000262	99783.846655	856.821683	1071.279345	1371.780897	0.013748	1.250294	0.399815	0.042218
0.599722	0.000183	0.927956	0.000292	110029.298616	879.583220	1152.319258	1449.657309	0.013175	1.310074	0.599722	0.064021
0.799630	0.000249	1.023237	0.000324	121328.342059	901.541270	1240.793613	1533.735783	0.012641	1.376303	0.799630	0.087068
0.999537	0.000317	1.128320	0.000361	133786.220896	922.251002	1337.506729	1624.644934	0.012144	1.450263	0.999537	0.110717
1.199450	0.000384	1.244164	0.000401	147523.252620	941.148550	1443.340313	1723.076275	0.011680	1.533595	1.199450	0.133856
1.399350	0.000455	1.371907	0.000446	162669.243085	957.558539	1559.306786	1829.851363	0.011249	1.628419	1.399350	0.158872
1.599260	0.000528	1.512789	0.000495	179371.662635	970.645627	1686.536705	1945.908269	0.010848	1.737541	1.599260	0.184216
1.799170	0.000592	1.668109	0.000548	197790.674791	979.403141	1826.312918	2072.353587	0.010478	1.864720	1.799170	0.206494
1.999070	0.000655	1.839410	0.000606	218100.907658	982.633090	1980.137963	2210.546119	0.010135	2.015135	1.999070	0.228626
2.198980	0.000720	2.028259	0.000669	240493.102142	978.944467	2149.936491	2362.320720	0.009823	2.196178	2.198980	0.251231
2.398890	0.000778	2.236543	0.000737	265187.808580	966.686430	2338.177685	2530.129946	0.009541	2.418755	2.398890	0.271465
2.598800	0.000853	2.466199	0.000809	292419.442140	943.970401	2548.331884	2717.549541	0.009293	2.699589	2.598800	0.297785
2.798700	0.000909	2.719385	0.000885	322445.652187	908.611566	2785.654205	2930.092887	0.009087	3.065836	2.798700	0.317288
