MicroRheology Analysis v9.2.8
10/03/18 5:33:11 PM

Correlation Mode:	Cross
Geometry:	Transmission
Multi-Tau Duration (s):	120
Echo Duration (s):	60
Wavelength (nm):	685.0
Temperature (°C):	25.00
Cuvette Thickness (mm):	10.00
Absorption Length (mm):	Inf
Solvent:	Water
Solvent Refractive Index:	1.329
Particle Radius (nm):	300.0
Mean Count Rate (kHz):	124.7
l* (microns):	811.27



Lag Time (s)	Mean Square Displacement (micron^2)	Fit Lag Time (s)	Mean Square Displacement Fit (micron^2)	Frequency(rad/s)	G1 (Pa)	G2 (Pa)	G* (Pa)	Complex Viscosity (Pa s)	Loss Tangent (-)	Time (s)	Creep Compliance (1/Pa)

3.212500E-6	1.248168E-6	3.212515E-6	1.346325E-6	0.080682	3.464700	10.968995	11.503173	142.574522	3.165929	3.212500E-6	0.000286
3.612500E-6	1.426068E-6	3.483940E-6	1.450953E-6	0.087497	3.513901	11.747759	12.262029	140.142699	3.343224	3.612500E-6	0.000327
4.012500E-6	1.609773E-6	3.778240E-6	1.560426E-6	0.094889	3.590351	12.582883	13.085090	137.898358	3.504638	4.012500E-6	0.000369
4.412500E-6	1.799260E-6	4.097423E-6	1.674800E-6	0.102905	3.697886	13.478837	13.976889	135.823274	3.645012	4.412500E-6	0.000412
4.812500E-6	1.950819E-6	4.443555E-6	1.794089E-6	0.111598	3.840769	14.440118	14.942172	133.893029	3.759694	4.812500E-6	0.000447
5.212500E-6	2.126211E-6	4.818970E-6	1.918331E-6	0.121027	4.023626	15.470414	15.985096	132.078281	3.844893	5.212500E-6	0.000487
5.612500E-6	2.295713E-6	5.226092E-6	2.047522E-6	0.131251	4.251786	16.573955	17.110631	130.365727	3.898116	5.612500E-6	0.000526
6.012500E-6	2.525893E-6	5.667555E-6	2.181659E-6	0.142338	4.531097	17.754750	18.323809	128.734753	3.918422	6.012500E-6	0.000578
6.412500E-6	2.569521E-6	6.146307E-6	2.320758E-6	0.154362	4.867985	19.016471	19.629657	127.166110	3.906436	6.412500E-6	0.000588
7.212500E-6	2.690191E-6	6.665565E-6	2.464838E-6	0.167405	5.269300	20.361862	21.032616	125.638922	3.864244	7.212500E-6	0.000616
8.012500E-6	2.812586E-6	7.228725E-6	2.613883E-6	0.181547	5.742562	21.793718	22.537595	124.141612	3.795121	8.012500E-6	0.000644
8.812500E-6	3.074826E-6	7.839374E-6	2.767854E-6	0.196882	6.296017	23.314841	24.149982	122.662179	3.703109	8.812500E-6	0.000704
9.612500E-6	3.191202E-6	8.501667E-6	2.926768E-6	0.213516	6.938152	24.926344	25.873937	121.180364	3.592649	9.612500E-6	0.000731
1.041250E-5	3.404050E-6	9.219812E-6	3.090572E-6	0.231553	7.678147	26.629481	27.714314	119.688925	3.468217	1.041250E-5	0.000779
1.121250E-5	3.519564E-6	9.998688E-6	3.259275E-6	0.251115	8.525507	28.424215	29.675247	118.173776	3.334020	1.121250E-5	0.000806
1.201250E-5	3.708775E-6	1.084351E-5	3.432864E-6	0.272331	9.489928	30.309334	31.760266	116.623934	3.193843	1.201250E-5	0.000849
1.281250E-5	3.758726E-6	1.175953E-5	3.611242E-6	0.295333	10.581902	32.284012	33.974021	115.036201	3.050870	1.281250E-5	0.000861
1.441250E-5	3.946717E-6	1.275294E-5	3.794404E-6	0.320287	11.811365	34.344248	36.318531	113.393698	2.907729	1.441250E-5	0.000904
1.601250E-5	4.096334E-6	1.383026E-5	3.982303E-6	0.347343	13.188816	36.486706	38.797224	111.697233	2.766488	1.601250E-5	0.000938
1.761250E-5	4.318681E-6	1.499854E-5	4.174882E-6	0.376688	14.724127	38.705243	41.411300	109.935330	2.628695	1.761250E-5	0.000989
1.921250E-5	4.523420E-6	1.626556E-5	4.372099E-6	0.408504	16.427794	40.994591	44.163661	108.110608	2.495441	1.921250E-5	0.001036
2.081250E-5	4.702000E-6	1.763983E-5	4.573916E-6	0.443021	18.308721	43.345354	47.053470	106.210536	2.367470	2.081250E-5	0.001077
2.241250E-5	4.887309E-6	1.912993E-5	4.780197E-6	0.480443	20.376171	45.749426	50.081916	104.241025	2.245242	2.241250E-5	0.001119
2.401250E-5	5.124256E-6	2.074627E-5	4.990948E-6	0.521035	22.637611	48.194973	53.246755	102.194134	2.128978	2.401250E-5	0.001173
2.561250E-5	5.430294E-6	2.249856E-5	5.205971E-6	0.565044	25.100854	50.671674	56.547957	100.077172	2.018723	2.561250E-5	0.001243
2.881250E-5	5.791490E-6	2.439930E-5	5.425294E-6	0.612782	27.771651	53.165676	59.982112	97.884910	1.914387	2.881250E-5	0.001326
3.201250E-5	6.123856E-6	2.646045E-5	5.648755E-6	0.664553	30.654197	55.662594	63.545293	95.621058	1.815823	3.201250E-5	0.001402
3.521250E-5	6.405748E-6	2.869625E-5	5.876317E-6	0.720692	33.751656	58.147573	67.233284	93.289940	1.722807	3.521250E-5	0.001467
3.841250E-5	6.633750E-6	3.112039E-5	6.107761E-6	0.781570	37.066144	60.605316	71.041561	90.895950	1.635059	3.841250E-5	0.001519
4.161250E-5	6.875254E-6	3.374897E-5	6.342987E-6	0.847606	40.596634	63.018153	74.962486	88.440295	1.552300	4.161250E-5	0.001574
4.481250E-5	7.116925E-6	3.660048E-5	6.581964E-6	0.919210	44.340921	65.369466	78.989140	85.931547	1.474247	4.481250E-5	0.001629
4.801250E-5	7.405011E-6	3.969260E-5	6.824454E-6	0.996861	48.295165	67.642134	83.113665	83.375357	1.400598	4.801250E-5	0.001695
5.121250E-5	7.684026E-6	4.304518E-5	7.070275E-6	1.081077	52.453014	69.818546	87.326674	80.777462	1.331068	5.121250E-5	0.001759
5.761250E-5	8.018850E-6	4.668171E-5	7.319371E-6	1.172405	56.806111	71.881577	91.618204	78.145506	1.265385	5.761250E-5	0.001836
6.401250E-5	8.385092E-6	5.062545E-5	7.571519E-6	1.271443	61.344878	73.815069	95.978427	75.487774	1.203280	6.401250E-5	0.001920
7.041250E-5	8.726288E-6	5.490242E-5	7.826542E-6	1.378862	66.056044	75.602024	100.394556	72.809736	1.144513	7.041250E-5	0.001998
7.681250E-5	9.074235E-6	5.954008E-5	8.084210E-6	1.495327	70.927477	77.229165	104.857288	70.123332	1.088847	7.681250E-5	0.002078
8.321250E-5	9.372293E-6	6.457062E-5	8.344411E-6	1.621673	75.941634	78.680647	109.351616	67.431363	1.036067	8.321250E-5	0.002146
8.961250E-5	9.574311E-6	7.002559E-5	8.606852E-6	1.758653	81.082951	79.945907	113.867436	64.746966	0.985977	8.961250E-5	0.002192
9.601250E-5	9.831964E-6	7.594061E-5	8.871301E-6	1.907245	86.331023	81.012253	118.389318	62.073478	0.938391	9.601250E-5	0.002251
0.000102	1.012161E-5	8.235638E-5	9.137606E-6	2.068340	91.667676	81.872213	122.906559	59.422804	0.893142	0.000102	0.002317
0.000115	1.043732E-5	8.931450E-5	9.405493E-6	2.243077	97.071799	82.517476	127.405133	56.799272	0.850066	0.000115	0.002390
0.000128	1.082767E-5	9.685912E-5	9.674651E-6	2.432568	102.522769	82.943316	131.873090	54.211480	0.809023	0.000128	0.002479
0.000141	1.119457E-5	0.000105	9.944893E-6	2.638099	107.997027	83.145452	136.295722	51.664365	0.769886	0.000141	0.002563
0.000154	1.150066E-5	0.000114	1.021590E-5	2.860925	113.474600	83.124060	140.663052	49.166979	0.732535	0.000154	0.002633
0.000166	1.178460E-5	0.000124	1.048746E-5	3.102621	118.933672	82.879059	144.962605	46.722624	0.696851	0.000166	0.002698
0.000179	1.200398E-5	0.000134	1.075921E-5	3.364750	124.352688	82.413442	149.182997	44.337029	0.662740	0.000179	0.002748
0.000192	1.225849E-5	0.000145	1.103093E-5	3.649028	129.710190	81.731927	153.312887	42.014714	0.630112	0.000192	0.002807
0.000205	1.253267E-5	0.000158	1.130231E-5	3.957273	134.987230	80.841680	157.343349	39.760545	0.598884	0.000205	0.002869
0.000230	1.283531E-5	0.000171	1.157301E-5	4.291572	140.165057	79.750761	161.265084	37.577162	0.568977	0.000230	0.002939
0.000256	1.316483E-5	0.000185	1.184278E-5	4.654102	145.226601	78.469318	165.070287	35.467697	0.540323	0.000256	0.003014
0.000282	1.346395E-5	0.000201	1.211130E-5	5.047280	150.155701	77.008618	168.751479	33.434143	0.512858	0.000282	0.003083
0.000307	1.370276E-5	0.000218	1.237820E-5	5.473668	154.938347	75.381457	172.302802	31.478488	0.486526	0.000307	0.003137
0.000333	1.394680E-5	0.000236	1.264321E-5	5.936116	159.561455	73.601390	175.718589	29.601611	0.461273	0.000333	0.003193
0.000358	1.414769E-5	0.000256	1.290601E-5	6.437616	164.013844	71.683204	178.994477	27.804464	0.437056	0.000358	0.003239
0.000384	1.434466E-5	0.000278	1.316640E-5	6.981440	168.286807	69.642214	182.127667	26.087406	0.413831	0.000384	0.003284
0.000410	1.455353E-5	0.000301	1.342391E-5	7.571218	172.373237	67.493926	185.116079	24.449974	0.391557	0.000410	0.003332
0.000461	1.477806E-5	0.000327	1.367834E-5	8.210855	176.267253	65.254285	187.958150	22.891421	0.370201	0.000461	0.003384
0.000512	1.502058E-5	0.000355	1.392936E-5	8.904493	179.965454	62.939482	190.653988	21.410988	0.349731	0.000512	0.003439
0.000563	1.526770E-5	0.000385	1.417664E-5	9.656761	183.465060	60.565463	193.203529	20.007073	0.330120	0.000563	0.003496
0.000614	1.546471E-5	0.000417	1.442003E-5	10.472414	186.767054	58.148079	195.609641	18.678563	0.311340	0.000614	0.003541
0.000666	1.564235E-5	0.000452	1.465915E-5	11.357162	189.872140	55.702104	197.874086	17.422846	0.293366	0.000666	0.003581
0.000717	1.579211E-5	0.000490	1.489378E-5	12.316682	192.782829	53.242701	200.000011	16.238140	0.276180	0.000717	0.003616
0.000768	1.593897E-5	0.000532	1.512363E-5	13.357273	195.502701	50.784239	201.990952	15.122170	0.259762	0.000768	0.003649
0.000819	1.611131E-5	0.000577	1.534857E-5	14.485617	198.037259	48.340343	203.851771	14.072702	0.244097	0.000819	0.003689
0.000922	1.629356E-5	0.000626	1.556828E-5	15.709249	200.393173	45.923429	205.587901	13.087061	0.229167	0.000922	0.003731
0.001024	1.648419E-5	0.000678	1.578258E-5	17.036415	202.577414	43.545276	207.204729	12.162461	0.214956	0.001024	0.003774
0.001126	1.667839E-5	0.000736	1.599129E-5	18.475746	204.597642	41.217189	208.708054	11.296326	0.201455	0.001126	0.003819
0.001229	1.683869E-5	0.000798	1.619427E-5	20.036487	206.462923	38.949341	210.104711	10.486105	0.188651	0.001229	0.003855
0.001331	1.697722E-5	0.000865	1.639135E-5	21.729165	208.182411	36.750786	211.401363	9.728922	0.176532	0.001331	0.003887
0.001434	1.710477E-5	0.000938	1.658242E-5	23.564841	209.765718	34.629960	212.605010	9.022128	0.165089	0.001434	0.003916
0.001536	1.723087E-5	0.001018	1.676733E-5	25.555526	211.223008	32.594279	213.723059	8.363086	0.154312	0.001536	0.003945
0.001638	1.738524E-5	0.001104	1.694607E-5	27.714508	212.564398	30.650291	214.762808	7.749111	0.144193	0.001638	0.003980
0.001843	1.756710E-5	0.001197	1.711852E-5	30.055890	213.799941	28.803978	215.731509	7.177678	0.134724	0.001843	0.004022
0.002048	1.774978E-5	0.001298	1.728466E-5	32.594607	214.940583	27.060187	216.637273	6.646415	0.125896	0.002048	0.004064
0.002253	1.792575E-5	0.001407	1.744445E-5	35.348397	215.996180	25.423045	217.487198	6.152675	0.117701	0.002253	0.004104
0.002458	1.807425E-5	0.001526	1.759796E-5	38.334547	216.977188	23.896274	218.289102	5.694318	0.110133	0.002458	0.004138
0.002662	1.821137E-5	0.001655	1.774518E-5	41.573340	217.893284	22.482815	219.050131	5.269005	0.103183	0.002662	0.004170
0.002867	1.833672E-5	0.001795	1.788618E-5	45.085205	218.754452	21.185107	219.777886	4.874723	0.096844	0.002867	0.004198
0.003072	1.846922E-5	0.001947	1.802107E-5	48.893829	219.570260	20.004811	220.479685	4.509356	0.091109	0.003072	0.004229
0.003277	1.860663E-5	0.002111	1.814993E-5	53.024624	220.349732	18.943343	221.162508	4.170940	0.085969	0.003277	0.004260
0.003686	1.875020E-5	0.002290	1.827292E-5	57.504156	221.101745	18.001731	221.833370	3.857693	0.081418	0.003686	0.004293
0.004096	1.888929E-5	0.002483	1.839017E-5	62.361961	221.834791	17.180540	222.499091	3.567866	0.077447	0.004096	0.004325
0.004506	1.901822E-5	0.002693	1.850189E-5	67.629987	222.557133	16.479996	223.166457	3.299815	0.074048	0.004506	0.004354
0.004915	1.912114E-5	0.002920	1.860827E-5	73.343866	223.276176	15.900175	223.841610	3.051947	0.071213	0.004915	0.004378
0.005325	1.921093E-5	0.003167	1.870954E-5	79.538792	223.999713	15.440878	224.531272	2.822915	0.068933	0.005325	0.004398
0.005734	1.928881E-5	0.003435	1.880599E-5	86.258838	224.734417	15.101686	225.241246	2.611225	0.067198	0.005734	0.004416
0.006144	1.934856E-5	0.003725	1.889787E-5	93.545744	225.487046	14.882171	225.977625	2.415691	0.066000	0.006144	0.004430
0.006554	1.939651E-5	0.004039	1.898548E-5	101.448762	226.263833	14.781729	226.746162	2.235081	0.065330	0.006554	0.004441
0.007373	1.944420E-5	0.004381	1.906917E-5	110.019859	227.070521	14.799723	227.552309	2.068284	0.065177	0.007373	0.004452
0.008192	1.950171E-5	0.004751	1.914925E-5	119.313531	227.912827	14.935481	228.401675	1.914298	0.065532	0.008192	0.004465
0.009011	1.957046E-5	0.005152	1.922610E-5	129.392672	228.795968	15.188338	229.299543	1.772122	0.066384	0.009011	0.004481
0.009830	1.965751E-5	0.005587	1.930012E-5	140.323258	229.724900	15.557666	230.251104	1.640862	0.067723	0.009830	0.004501
0.010650	1.976371E-5	0.006059	1.937169E-5	152.177282	230.704439	16.042949	231.261572	1.519685	0.069539	0.010650	0.004525
0.011469	1.987765E-5	0.006571	1.944126E-5	165.035107	231.738616	16.643607	232.335524	1.407795	0.071821	0.011469	0.004551
0.012288	2.001017E-5	0.007126	1.950925E-5	178.975333	232.832044	17.359289	233.478277	1.304528	0.074557	0.012288	0.004581
0.013107	2.012290E-5	0.007728	1.957613E-5	194.096786	233.988323	18.189715	234.694272	1.209161	0.077738	0.013107	0.004607
0.014746	2.019155E-5	0.008381	1.964238E-5	210.492914	235.211337	19.134641	235.988363	1.121123	0.081351	0.014746	0.004623
0.016384	2.025594E-5	0.009089	1.970849E-5	228.273417	236.505013	20.194293	237.365605	1.039830	0.085386	0.016384	0.004638
0.018022	2.035220E-5	0.009857	1.977499E-5	247.561486	237.872205	21.368680	238.830079	0.964730	0.089833	0.018022	0.004660
0.019661	2.050793E-5	0.010690	1.984240E-5	268.473101	239.316683	22.658102	240.386906	0.895385	0.094678	0.019661	0.004695
0.021299	2.073622E-5	0.011593	1.991125E-5	291.154242	240.841541	24.063252	242.040674	0.831314	0.099913	0.021299	0.004748
0.022938	2.094951E-5	0.012572	1.998214E-5	315.752004	242.449733	25.584693	243.795918	0.772112	0.105526	0.022938	0.004797
0.024576	2.109127E-5	0.013634	2.005560E-5	342.424708	244.144542	27.223409	245.657631	0.717406	0.111505	0.024576	0.004829
0.026214	2.118730E-5	0.014786	2.013229E-5	371.352170	245.929020	28.980711	247.630702	0.666835	0.117842	0.026214	0.004851
0.029491	2.128070E-5	0.016035	2.021279E-5	402.725716	247.805855	30.857833	249.719738	0.620074	0.124524	0.029491	0.004872
0.032768	2.141653E-5	0.017390	2.029775E-5	436.745317	249.778498	32.856564	251.930252	0.576836	0.131543	0.032768	0.004903
0.036045	2.159964E-5	0.018859	2.038782E-5	473.645083	251.849439	34.978749	254.266893	0.536830	0.138888	0.036045	0.004945
0.039322	2.183968E-5	0.020452	2.048369E-5	513.656940	254.022108	37.226567	256.735367	0.499819	0.146549	0.039322	0.005000
0.042598	2.206864E-5	0.022180	2.058604E-5	557.053408	256.299080	39.602383	259.340639	0.465558	0.154516	0.042598	0.005053
0.045875	2.220699E-5	0.024054	2.069561E-5	604.108713	258.683881	42.108961	262.088754	0.433844	0.162782	0.045875	0.005084
0.049152	2.235661E-5	0.026086	2.081316E-5	655.141506	261.179785	44.749648	264.985681	0.404471	0.171337	0.049152	0.005119
0.052429	2.256270E-5	0.028290	2.093943E-5	710.490256	263.789479	47.527493	268.036848	0.377256	0.180172	0.052429	0.005166
0.058982	2.281015E-5	0.030680	2.107528E-5	770.503799	266.517159	50.446465	271.249409	0.352042	0.189280	0.058982	0.005223
0.065536	2.318307E-5	0.033271	2.122148E-5	835.597009	269.365922	53.510825	274.629584	0.328663	0.198655	0.065536	0.005308
0.072090	2.356685E-5	0.036082	2.137897E-5	906.188764	272.339725	56.725097	278.184584	0.306983	0.208288	0.072090	0.005396
0.078643	2.387873E-5	0.039130	2.154864E-5	982.752451	275.441396	60.093695	281.920583	0.286868	0.218172	0.078643	0.005467
0.085197	2.423516E-5	0.042436	2.173144E-5	1065.764819	278.676164	63.622349	285.846476	0.268208	0.228302	0.085197	0.005549
0.091750	2.449373E-5	0.046021	2.192837E-5	1155.807431	282.047307	67.316927	289.969399	0.250880	0.238672	0.091750	0.005608
0.098304	2.473523E-5	0.049909	2.214049E-5	1253.451196	285.559369	71.183504	294.297884	0.234790	0.249277	0.098304	0.005663
0.104858	2.510236E-5	0.054125	2.236890E-5	1359.344678	289.216300	75.228614	298.840112	0.219841	0.260112	0.104858	0.005747
0.117965	2.558944E-5	0.058698	2.261479E-5	1474.167236	293.023626	79.459937	303.606204	0.205951	0.271172	0.117965	0.005859
0.131072	2.620733E-5	0.063657	2.287937E-5	1598.699957	296.986154	83.885754	308.605890	0.193036	0.282457	0.131072	0.006000
0.144179	2.693592E-5	0.069034	2.316391E-5	1733.762616	301.109165	88.514758	313.849632	0.181022	0.293962	0.144179	0.006167
0.157286	2.687242E-5	0.074866	2.346984E-5	1880.251681	305.396449	93.355166	319.346486	0.169842	0.305685	0.157286	0.006153
0.170394	2.801928E-5	0.081191	2.379867E-5	2039.074384	309.855543	98.417623	325.109960	0.159440	0.317624	0.170394	0.006415
0.183501	3.120011E-5	0.088050	2.415192E-5	2211.342311	314.491055	103.712854	331.150993	0.149751	0.329780	0.183501	0.007143
0.399815	3.673266E-5	0.095489	2.453125E-5	2398.149740	319.310127	109.252737	337.483507	0.140727	0.342152	0.399815	0.008410
0.599723	4.426057E-5	0.103554	2.493837E-5	2600.765442	324.316928	115.048597	344.118656	0.132314	0.354741	0.599723	0.010134
0.799630	5.274245E-5	0.112303	2.537535E-5	2820.435660	329.520583	121.114821	351.073517	0.124475	0.367549	0.799630	0.012076
0.999538	6.021400E-5	0.121790	2.584413E-5	3058.703354	334.927165	127.466375	358.362781	0.117162	0.380579	0.999538	0.013786
1.199450	6.770930E-5	0.132079	2.634696E-5	3317.116819	340.542737	134.117832	366.001296	0.110337	0.393836	1.199450	0.015502
1.399350	7.511050E-5	0.143237	2.688614E-5	3597.325226	346.377087	141.087410	374.009015	0.103969	0.407323	1.399350	0.017197
1.599260	8.238735E-5	0.155337	2.746420E-5	3901.284661	352.434086	148.391330	382.400016	0.098019	0.421047	1.599260	0.018863
1.799170	9.008358E-5	0.168460	2.808395E-5	4230.823016	358.724131	156.049599	391.196216	0.092463	0.435013	1.799170	0.020625
1.999070	9.717218E-5	0.182693	2.874829E-5	4588.211076	365.255227	164.084147	400.418516	0.087271	0.449231	1.999070	0.022248
2.198980	0.000105	0.198127	2.946033E-5	4975.810445	372.036349	172.518345	410.089776	0.082417	0.463714	2.198980	0.023945
2.398890	0.000112	0.214864	3.022355E-5	5396.213597	379.074767	181.376031	420.232011	0.077875	0.478470	2.398890	0.025686
2.598800	0.000119	0.233015	3.104159E-5	5852.123730	386.378579	190.682707	430.869239	0.073626	0.493513	2.598800	0.027303
2.798700	0.000127	0.252699	3.191853E-5	6346.491759	393.958339	200.468141	442.030144	0.069650	0.508856	2.798700	0.029096
2.998610	0.000133	0.274046	3.285863E-5	6882.667714	401.821714	210.762864	453.741859	0.065925	0.524518	2.998610	0.030471
3.198520	0.000142	0.297199	3.386680E-5	7464.111014	409.977596	221.599761	466.034422	0.062437	0.540517	3.198520	0.032408
3.398430	0.000149	0.322308	3.494795E-5	8094.622674	418.436764	233.016493	478.942597	0.059168	0.556874	3.398430	0.034045
3.598340	0.000155	0.349537	3.610758E-5	8778.468690	427.206149	245.051141	492.498888	0.056103	0.573613	3.598340	0.035548
3.798240	0.000162	0.379061	3.735145E-5	9520.018144	436.296534	257.747207	506.742823	0.053229	0.590762	3.798240	0.037187
3.998150	0.000170	0.411088	3.868672E-5	10324.273491	445.714551	271.149571	521.712134	0.050533	0.608348	3.998150	0.038907
4.198060	0.000177	0.445816	4.011983E-5	11196.390059	455.471698	285.310544	537.453788	0.048002	0.626407	4.198060	0.040559
4.397970	0.000185	0.483480	4.165871E-5	12142.349735	465.572905	300.282838	554.010751	0.045626	0.644975	4.397970	0.042312
4.597870	0.000192	0.524317	4.331130E-5	13168.185169	476.024097	316.122924	571.430349	0.043395	0.664090	4.597870	0.044007
4.797780	0.000199	0.568617	4.508749E-5	14280.493520	486.835479	332.897915	589.770977	0.041299	0.683800	4.797780	0.045545
4.997690	0.000206	0.616647	4.699608E-5	15486.920704	498.011508	350.678130	609.089988	0.039329	0.704157	4.997690	0.047057
5.197590	0.000213	0.668750	4.904881E-5	16795.410162	509.551699	369.534193	629.442971	0.037477	0.725214	5.197590	0.048709
5.397500	0.000220	0.725236	5.125599E-5	18214.131933	521.463928	389.552202	650.903639	0.035736	0.747036	5.397500	0.050277
5.597410	0.000227	0.786508	5.363145E-5	19752.910356	533.745472	410.820443	673.541138	0.034098	0.769694	5.597410	0.051894
5.797320	0.000232	0.852947	5.618804E-5	21421.666959	546.394675	433.435717	697.433625	0.032557	0.793265	5.797320	0.053146
5.997230	0.000239	0.925003	5.894104E-5	23231.406983	559.402810	457.499489	722.659869	0.031107	0.817836	5.997230	0.054737
6.197130	0.000246	1.003149	6.190653E-5	25193.614189	572.768826	483.134486	749.321733	0.029743	0.843507	6.197130	0.056430
6.397040	0.000254	1.087891	6.510173E-5	27322.046660	586.476415	510.466067	777.515396	0.028457	0.870395	6.397040	0.058094
6.596950	0.000261	1.179794	6.854589E-5	29630.537720	600.500370	539.620532	807.335750	0.027247	0.898618	6.596950	0.059776
6.796850	0.000267	1.279476	7.225997E-5	32133.275870	614.825979	570.754842	838.911243	0.026107	0.928319	6.796850	0.061022
6.996760	0.000273	1.387556	7.626491E-5	34847.756976	629.422500	604.037107	872.372346	0.025034	0.959669	6.996760	0.062448
7.196670	0.000277	1.504770	8.058563E-5	37792.258731	644.240279	639.631609	907.840367	0.024022	0.992846	7.196670	0.063369
7.396580	0.000286	1.631902	8.524855E-5	40984.789855	659.238099	677.737341	945.474894	0.023069	1.028062	7.396580	0.065388
7.596490	0.000293	1.769775	9.028122E-5	44447.287034	674.346382	718.555480	985.426314	0.022171	1.065558	7.596490	0.067172
7.796390	0.000299	1.919256	9.571230E-5	48201.447265	689.503914	762.332663	1027.894322	0.021325	1.105625	7.796390	0.068566
7.996300	0.000305	2.081410	0.000102	52274.104255	704.603117	809.300706	1073.048547	0.020527	1.148591	7.996300	0.069738
8.196210	0.000311	2.257231	0.000108	56689.885543	719.546529	859.742857	1121.117740	0.019776	1.194840	8.196210	0.071197
8.396110	0.000316	2.447954	0.000115	61479.577919	734.190349	913.941510	1172.315892	0.019068	1.244829	8.396110	0.072364
8.596020	0.000323	2.654718	0.000122	66673.137580	748.381442	972.218628	1226.900095	0.018402	1.299095	8.596020	0.073844
8.795930	0.000329	2.879001	0.000130	72305.245317	761.931266	1034.924993	1285.149406	0.017774	1.358292	8.795930	0.075222
8.995840	0.000339	3.122199	0.000139	78413.314716	774.613989	1102.435866	1347.364713	0.017183	1.423207	8.995840	0.077549
9.195750	0.000346	3.386005	0.000148	85037.428754	786.163493	1175.156727	1413.876364	0.016627	1.494799	9.195750	0.079288
9.395650	0.000347	3.672008	0.000158	92221.067499	796.271416	1253.541797	1485.064040	0.016103	1.574264	9.395650	0.079443
9.595560	0.000357	3.982234	0.000169	100013.123581	804.555200	1338.041119	1561.301734	0.015611	1.663082	9.595560	0.081832
9.795470	0.000360	4.318668	0.000180	108462.077378	810.588479	1429.165516	1643.036140	0.015148	1.763121	9.795470	0.082408
9.995370	0.000366	4.683492	0.000193	117623.987493	813.866935	1527.482821	1730.775305	0.014714	1.876821	9.995370	0.083762
10.195300	0.000376	5.079183	0.000206	127561.206870	813.785307	1633.563927	1825.041816	0.014307	2.007365	10.195300	0.086122
10.395200	0.000379	5.508202	0.000221	138336.987527	809.659723	1748.063289	1926.466747	0.013926	2.159010	10.395200	0.086825
10.595100	0.000383	5.973528	0.000236	150024.802057	800.672553	1871.645688	2035.714646	0.013569	2.337592	10.595100	0.087757
10.795000	0.000385	6.478264	0.000253	162699.336178	785.892786	2005.044053	2153.561963	0.013236	2.551295	10.795000	0.088262
10.994900	0.000389	7.025545	0.000271	176442.933422	764.245667	2149.102577	2280.945709	0.012927	2.812057	10.994900	0.088970
11.194800	0.000393	7.618990	0.000290	191347.582275	734.485088	2304.801659	2419.003727	0.012642	3.137983	11.194800	0.089925
11.394700	0.000394	8.262589	0.000310	207513.211022	695.176163	2473.311455	2569.151505	0.012381	3.557820	11.394700	0.090238
11.594600	0.000400	8.960747	0.000332	225045.059250	644.679926	2656.168553	2733.284396	0.012145	4.120135	11.594600	0.091589
11.794500	0.000406	9.717704	0.000355	244055.833597	581.101336	2855.655326	2914.180177	0.011941	4.914212	11.794500	0.092959
11.994500	0.000411	10.538587	0.000380	264673.472021	502.175202	3075.262373	3115.993998	0.011773	6.123883	11.994500	0.094159
12.194400	0.000415	11.428998	0.000406	287031.334025	405.079607	3320.812224	3345.427225	0.011655	8.197925	12.194400	0.095057
