MicroRheology Analysis v9.2.8
10/03/18 5:23:39 PM

Correlation Mode:	Cross
Geometry:	Transmission
Multi-Tau Duration (s):	120
Echo Duration (s):	60
Wavelength (nm):	685.0
Temperature (°C):	35.01
Cuvette Thickness (mm):	10.00
Absorption Length (mm):	186.897
Solvent:	Water
Solvent Refractive Index:	1.329
Particle Radius (nm):	300.0
Mean Count Rate (kHz):	131.7
l* (microns):	912.06



Lag Time (s)	Mean Square Displacement (micron^2)	Fit Lag Time (s)	Mean Square Displacement Fit (micron^2)	Frequency(rad/s)	G1 (Pa)	G2 (Pa)	G* (Pa)	Complex Viscosity (Pa s)	Loss Tangent (-)	Time (s)	Creep Compliance (1/Pa)

3.012500E-6	2.265548E-6	3.012506E-6	2.274268E-6	0.119101	-0.343982	5.180649	5.192056	43.593772	-15.060797	3.012500E-6	0.000502
3.212500E-6	2.500685E-6	3.290753E-6	2.449890E-6	0.130102	-0.375188	5.686187	5.698551	43.800688	-15.155547	3.212500E-6	0.000554
3.612500E-6	2.711663E-6	3.594677E-6	2.633975E-6	0.142117	-0.394756	6.244943	6.257407	44.030062	-15.819762	3.612500E-6	0.000601
4.012500E-6	2.898349E-6	3.926681E-6	2.826634E-6	0.155243	-0.399370	6.861373	6.872986	44.272340	-17.180493	4.012500E-6	0.000642
4.412500E-6	3.055038E-6	4.289337E-6	3.027935E-6	0.169581	-0.385163	7.540236	7.550066	44.522007	-19.576752	4.412500E-6	0.000677
4.812500E-6	3.146436E-6	4.685438E-6	3.237925E-6	0.185241	-0.347637	8.286409	8.293698	44.772412	-23.836364	4.812500E-6	0.000697
5.212500E-6	3.438657E-6	5.118159E-6	3.456700E-6	0.202350	-0.281625	9.104463	9.108817	45.015082	-32.328277	5.212500E-6	0.000762
5.612500E-6	3.700894E-6	5.590894E-6	3.684302E-6	0.221037	-0.181270	9.999169	10.000812	45.244956	-55.161694	5.612500E-6	0.000820
6.012500E-6	4.008989E-6	6.107192E-6	3.920687E-6	0.241450	-0.039956	10.975021	10.975094	45.454867	-274.676394	6.012500E-6	0.000888
6.412500E-6	4.096743E-6	6.671272E-6	4.165949E-6	0.263751	0.149679	12.036141	12.037072	45.638086	80.413201	6.412500E-6	0.000908
7.212500E-6	4.322563E-6	7.287390E-6	4.420014E-6	0.288112	0.395731	13.186126	13.192063	45.788046	33.320909	7.212500E-6	0.000958
8.012500E-6	4.608885E-6	7.960343E-6	4.682852E-6	0.314720	0.707040	14.428179	14.445492	45.899441	20.406443	8.012500E-6	0.001021
8.812500E-6	5.016384E-6	8.695537E-6	4.954483E-6	0.343786	1.093160	15.764741	15.802596	45.966349	14.421255	8.812500E-6	0.001111
9.612500E-6	5.275597E-6	9.498712E-6	5.234838E-6	0.375535	1.564342	17.197668	17.268670	45.984183	10.993549	9.612500E-6	0.001169
1.041250E-5	5.600984E-6	1.037588E-5	5.523751E-6	0.410220	2.131315	18.727221	18.848112	45.946319	8.786698	1.041250E-5	0.001241
1.121250E-5	5.767928E-6	1.133424E-5	5.821241E-6	0.448103	2.805371	20.353354	20.545781	45.850613	7.255139	1.121250E-5	0.001278
1.201250E-5	5.979854E-6	1.238106E-5	6.127120E-6	0.489488	3.598155	22.074269	22.365600	45.691802	6.134886	1.201250E-5	0.001325
1.281250E-5	6.282775E-6	1.352439E-5	6.441216E-6	0.534698	4.521334	23.886594	24.310735	45.466305	5.283085	1.281250E-5	0.001392
1.441250E-5	6.537081E-6	1.477346E-5	6.763455E-6	0.584076	5.586775	25.786193	26.384461	45.173016	4.615578	1.441250E-5	0.001448
1.601250E-5	6.844137E-6	1.613778E-5	7.093593E-6	0.638018	6.806079	27.766782	28.588755	44.808709	4.079703	1.601250E-5	0.001516
1.761250E-5	7.223490E-6	1.762843E-5	7.431524E-6	0.696939	8.190502	29.820906	30.925244	44.372927	3.640913	1.761250E-5	0.001600
1.921250E-5	7.494400E-6	1.925644E-5	7.776884E-6	0.761307	9.750724	31.939370	33.394610	43.864839	3.275589	1.921250E-5	0.001660
2.081250E-5	7.845620E-6	2.103488E-5	8.129504E-6	0.831627	11.496129	34.110643	35.995791	43.283563	2.967142	2.081250E-5	0.001738
2.241250E-5	8.267038E-6	2.297757E-5	8.489099E-6	0.908428	13.435426	36.322864	38.728041	42.631931	2.703514	2.241250E-5	0.001831
2.401250E-5	8.621322E-6	2.509961E-5	8.855361E-6	0.992328	15.575950	38.562059	41.588973	41.910528	2.475744	2.401250E-5	0.001910
2.561250E-5	9.100340E-6	2.741773E-5	9.227996E-6	1.083981	17.922794	40.812250	44.574279	41.120890	2.277114	2.561250E-5	0.002016
2.881250E-5	9.544606E-6	2.994998E-5	9.606653E-6	1.184075	20.480618	43.058534	47.681160	40.268716	2.102404	2.881250E-5	0.002114
3.201250E-5	9.938804E-6	3.271561E-5	9.990894E-6	1.293451	23.250600	45.281992	50.902349	39.353901	1.947562	3.201250E-5	0.002202
3.521250E-5	1.035159E-5	3.573763E-5	1.038052E-5	1.412905	26.232434	47.465231	54.231806	38.383195	1.809410	3.521250E-5	0.002293
3.841250E-5	1.069998E-5	3.903807E-5	1.077490E-5	1.543393	29.423434	49.589380	57.661469	37.360192	1.685370	3.841250E-5	0.002370
4.161250E-5	1.108240E-5	4.264323E-5	1.117369E-5	1.685921	32.819283	51.636433	61.183548	36.290870	1.573357	4.161250E-5	0.002455
4.481250E-5	1.150928E-5	4.658188E-5	1.157649E-5	1.841645	36.411840	53.586658	64.786975	35.178856	1.471682	4.481250E-5	0.002550
4.801250E-5	1.193176E-5	5.088373E-5	1.198271E-5	2.011718	40.191975	55.422900	68.462345	34.031788	1.378954	4.801250E-5	0.002643
5.121250E-5	1.232272E-5	5.558275E-5	1.239190E-5	2.197522	44.147473	57.127127	72.197701	32.854147	1.294007	5.121250E-5	0.002730
5.761250E-5	1.278426E-5	6.071638E-5	1.280360E-5	2.400476	48.263974	58.683096	75.981031	31.652490	1.215878	5.761250E-5	0.002832
6.401250E-5	1.324322E-5	6.632393E-5	1.321722E-5	2.622159	52.525506	60.075973	79.800071	30.432970	1.143749	6.401250E-5	0.002934
7.041250E-5	1.365928E-5	7.244884E-5	1.363218E-5	2.864313	56.914910	61.292725	83.642723	29.201669	1.076919	7.041250E-5	0.003026
7.681250E-5	1.410040E-5	7.914093E-5	1.404806E-5	3.128887	61.411666	62.320883	87.494487	27.963454	1.014805	7.681250E-5	0.003124
8.321250E-5	1.449489E-5	8.644888E-5	1.446406E-5	3.417853	65.994595	63.151257	91.342038	26.724979	0.956916	8.321250E-5	0.003211
8.961250E-5	1.481016E-5	9.443409E-5	1.487984E-5	3.733450	70.643314	63.777174	95.173556	25.492119	0.902806	8.961250E-5	0.003281
9.601250E-5	1.520801E-5	0.000103	1.529460E-5	4.078261	75.335318	64.192915	98.975454	24.269032	0.852096	9.601250E-5	0.003369
0.000102	1.562456E-5	0.000113	1.570790E-5	4.454943	80.047019	64.395583	102.734203	23.060723	0.804472	0.000102	0.003461
0.000115	1.603769E-5	0.000123	1.611902E-5	4.866355	84.756267	64.385296	106.438204	21.872264	0.759652	0.000115	0.003553
0.000128	1.654457E-5	0.000134	1.652737E-5	5.315780	89.441297	64.163869	110.076100	20.707422	0.717385	0.000128	0.003665
0.000141	1.702572E-5	0.000147	1.693248E-5	5.806781	94.079614	63.735101	113.635984	19.569531	0.677459	0.000141	0.003772
0.000154	1.740880E-5	0.000160	1.733366E-5	6.343082	98.650322	63.105633	117.107672	18.462267	0.639690	0.000154	0.003856
0.000166	1.778293E-5	0.000175	1.773027E-5	6.928861	103.134879	62.283912	120.482733	17.388534	0.603907	0.000166	0.003939
0.000179	1.808469E-5	0.000191	1.812185E-5	7.568846	107.514059	61.279466	123.751549	16.350121	0.569967	0.000179	0.004006
0.000192	1.836231E-5	0.000209	1.850776E-5	8.267814	111.772379	60.104563	126.907932	15.349636	0.537741	0.000192	0.004068
0.000205	1.869609E-5	0.000228	1.888758E-5	9.031451	115.894302	58.771667	129.944596	14.388009	0.507114	0.000205	0.004142
0.000230	1.906130E-5	0.000250	1.926062E-5	9.865502	119.867371	57.295356	132.856857	13.466812	0.477990	0.000230	0.004222
0.000256	1.943189E-5	0.000273	1.962643E-5	10.776589	123.681083	55.690427	135.640827	12.586620	0.450274	0.000256	0.004305
0.000282	1.978967E-5	0.000298	1.998461E-5	11.771900	127.326394	53.972429	138.293288	11.747746	0.423890	0.000282	0.004384
0.000307	2.009958E-5	0.000325	2.033467E-5	12.859148	130.796194	52.157551	140.812125	10.950346	0.398770	0.000307	0.004452
0.000333	2.035880E-5	0.000355	2.067617E-5	14.046731	134.085681	50.262165	143.196560	10.194298	0.374851	0.000333	0.004510
0.000358	2.059492E-5	0.000388	2.100870E-5	15.343916	137.192687	48.302373	145.447422	9.479159	0.352077	0.000358	0.004562
0.000384	2.083030E-5	0.000424	2.133205E-5	16.761161	140.115241	46.294001	147.564952	8.803982	0.330399	0.000384	0.004614
0.000410	2.109522E-5	0.000463	2.164573E-5	18.309058	142.854341	44.253066	149.551652	8.168178	0.309778	0.000410	0.004673
0.000461	2.138726E-5	0.000506	2.194960E-5	19.999890	145.412772	42.194323	151.410815	7.570583	0.290169	0.000461	0.004738
0.000512	2.168234E-5	0.000553	2.224343E-5	21.847181	147.793489	40.132164	153.145375	7.009846	0.271542	0.000512	0.004803
0.000563	2.195075E-5	0.000604	2.252691E-5	23.864747	150.002249	38.080443	154.760443	6.484898	0.253866	0.000563	0.004863
0.000614	2.216605E-5	0.000659	2.280007E-5	26.068963	152.044725	36.051736	156.260443	5.994118	0.237113	0.000614	0.004910
0.000666	2.234991E-5	0.000720	2.306267E-5	28.476422	153.928786	34.058027	157.651579	5.536214	0.221258	0.000666	0.004951
0.000717	2.250983E-5	0.000787	2.331476E-5	31.106682	155.661771	32.110159	158.939136	5.109485	0.206282	0.000717	0.004986
0.000768	2.268859E-5	0.000859	2.355630E-5	33.979175	157.253028	30.218297	160.130136	4.712596	0.192164	0.000768	0.005026
0.000819	2.288812E-5	0.000939	2.378734E-5	37.117132	158.712264	28.390923	161.231595	4.343859	0.178883	0.000819	0.005070
0.000922	2.312498E-5	0.001026	2.400800E-5	40.545775	160.048529	26.636185	162.249863	4.001647	0.166426	0.000922	0.005123
0.001024	2.337462E-5	0.001120	2.421842E-5	44.290356	161.272207	24.961433	163.192518	3.684606	0.154778	0.001024	0.005178
0.001126	2.361620E-5	0.001224	2.441879E-5	48.380771	162.393447	23.372665	164.066795	3.391157	0.143926	0.001126	0.005231
0.001229	2.381615E-5	0.001337	2.460934E-5	52.848567	163.422696	21.875173	164.880262	3.119862	0.133856	0.001229	0.005276
0.001331	2.399991E-5	0.001460	2.479038E-5	57.729003	164.370445	20.473260	165.640568	2.869278	0.124556	0.001331	0.005316
0.001434	2.415884E-5	0.001595	2.496226E-5	63.061174	165.246555	19.170725	166.354864	2.637992	0.116013	0.001434	0.005352
0.001536	2.433092E-5	0.001742	2.512532E-5	68.885323	166.061136	17.970773	167.030684	2.424764	0.108218	0.001536	0.005390
0.001638	2.451857E-5	0.001903	2.528003E-5	75.247454	166.823867	16.875819	167.675269	2.228318	0.101160	0.001638	0.005431
0.001843	2.473702E-5	0.002079	2.542686E-5	82.196685	167.544352	15.887732	168.295959	2.047479	0.094827	0.001843	0.005480
0.002048	2.498612E-5	0.002271	2.556631E-5	89.788305	168.231533	15.007934	168.899635	1.881087	0.089210	0.002048	0.005535
0.002253	2.525236E-5	0.002481	2.569895E-5	98.079809	168.894409	14.237411	169.493437	1.728118	0.084298	0.002253	0.005594
0.002458	2.549059E-5	0.002710	2.582538E-5	107.138106	169.541367	13.576695	170.084102	1.587522	0.080079	0.002458	0.005647
0.002662	2.571451E-5	0.002960	2.594626E-5	117.034186	170.180235	13.026203	170.678043	1.458361	0.076544	0.002662	0.005696
0.002867	2.588713E-5	0.003234	2.606221E-5	127.842857	170.818737	12.586050	171.281784	1.339784	0.073681	0.002867	0.005735
0.003072	2.606635E-5	0.003532	2.617401E-5	139.650022	171.463959	12.256102	171.901429	1.230945	0.071479	0.003072	0.005774
0.003277	2.627826E-5	0.003858	2.628236E-5	152.545551	172.123026	12.036090	172.543338	1.131094	0.069927	0.003277	0.005821
0.003686	2.650345E-5	0.004215	2.638808E-5	166.636190	172.801954	11.925664	173.212981	1.039468	0.069013	0.003686	0.005871
0.004096	2.672880E-5	0.004604	2.649197E-5	182.023106	173.507259	11.924469	173.916537	0.955464	0.068726	0.004096	0.005921
0.004506	2.692371E-5	0.005029	2.659486E-5	198.836884	174.244202	12.032060	174.659132	0.878404	0.069053	0.004506	0.005964
0.004915	2.705990E-5	0.005494	2.669771E-5	217.197435	175.018509	12.248074	175.446555	0.807775	0.069982	0.004915	0.005994
0.005325	2.719309E-5	0.006001	2.680134E-5	237.257340	175.835173	12.572220	176.284057	0.743008	0.071500	0.005325	0.006024
0.005734	2.730533E-5	0.006555	2.690679E-5	259.171638	176.698774	13.004203	177.176652	0.683627	0.073595	0.005734	0.006049
0.006144	2.742624E-5	0.007161	2.701496E-5	283.105141	177.614122	13.543941	178.129770	0.629200	0.076255	0.006144	0.006075
0.006554	2.758949E-5	0.007822	2.712693E-5	309.254689	178.585115	14.191394	179.148093	0.579290	0.079466	0.006554	0.006112
0.007373	2.778742E-5	0.008545	2.724372E-5	337.811628	179.616257	14.946803	180.237085	0.533543	0.083215	0.007373	0.006155
0.008192	2.797871E-5	0.009334	2.736644E-5	369.015404	180.711031	15.810539	181.401351	0.491582	0.087491	0.008192	0.006198
0.009011	2.814275E-5	0.010196	2.749618E-5	403.096137	181.873256	16.783063	182.645975	0.453108	0.092279	0.009011	0.006234
0.009830	2.821681E-5	0.011137	2.763409E-5	440.324814	183.106409	17.865168	183.975871	0.417819	0.097567	0.009830	0.006251
0.010650	2.824033E-5	0.012166	2.778141E-5	480.989309	184.414019	19.057893	185.396153	0.385448	0.103343	0.010650	0.006256
0.011469	2.823372E-5	0.013289	2.793936E-5	525.411278	185.799381	20.362542	186.911859	0.355744	0.109594	0.011469	0.006254
0.012288	2.823210E-5	0.014517	2.810926E-5	573.936295	187.265609	21.780543	188.527983	0.328482	0.116308	0.012288	0.006254
0.013107	2.817428E-5	0.015858	2.829243E-5	626.936645	188.816311	23.313902	190.250197	0.303460	0.123474	0.013107	0.006241
0.014746	2.802942E-5	0.017322	2.849030E-5	684.844123	190.454258	24.964717	192.083476	0.280478	0.131080	0.014746	0.006209
0.016384	2.791480E-5	0.018922	2.870428E-5	748.093193	192.182740	26.735296	194.033455	0.259371	0.139114	0.016384	0.006184
0.018022	2.801104E-5	0.020669	2.893593E-5	817.182550	194.004979	28.628523	196.105900	0.239978	0.147566	0.018022	0.006205
0.019661	2.835438E-5	0.022578	2.918689E-5	892.653517	195.924225	30.647598	198.306776	0.222154	0.156426	0.019661	0.006281
0.021299	2.892908E-5	0.024663	2.945884E-5	975.097380	197.943653	32.796019	200.642141	0.205766	0.165684	0.021299	0.006408
0.022938	2.953210E-5	0.026942	2.975360E-5	1065.153515	200.066496	35.077598	203.118293	0.190694	0.175330	0.022938	0.006542
0.024576	2.995995E-5	0.029430	3.007295E-5	1163.519141	202.296455	37.496828	205.742237	0.176828	0.185356	0.024576	0.006637
0.026214	3.014962E-5	0.032147	3.041892E-5	1270.976574	204.636944	40.058600	208.520910	0.164064	0.195754	0.026214	0.006679
0.029491	3.018775E-5	0.035117	3.079375E-5	1388.360250	207.091300	42.767936	211.461351	0.152310	0.206517	0.029491	0.006687
0.032768	3.029873E-5	0.038360	3.119954E-5	1516.568584	209.664229	45.631122	214.572338	0.141485	0.217639	0.032768	0.006712
0.036045	3.062616E-5	0.041903	3.163885E-5	1656.656371	212.358156	48.653942	217.860489	0.131506	0.229113	0.036045	0.006784
0.039322	3.121875E-5	0.045772	3.211412E-5	1809.631683	215.178793	51.843686	221.336126	0.122310	0.240933	0.039322	0.006916
0.042598	3.187732E-5	0.050000	3.262828E-5	1976.781797	218.129344	55.207967	225.007400	0.113825	0.253097	0.042598	0.007061
0.045875	3.221562E-5	0.054618	3.318414E-5	2159.354739	221.214015	58.754299	228.883612	0.105996	0.265599	0.045875	0.007136
0.049152	3.247946E-5	0.059662	3.378499E-5	2358.752524	224.438963	62.492526	232.976745	0.098771	0.278439	0.049152	0.007195
0.052429	3.282144E-5	0.065172	3.443440E-5	2576.633369	227.806991	66.431588	237.295556	0.092095	0.291613	0.052429	0.007271
0.058982	3.331899E-5	0.071191	3.513589E-5	2814.565241	231.324786	70.582163	241.853258	0.085929	0.305121	0.058982	0.007381
0.065536	3.418809E-5	0.077766	3.589368E-5	3074.506443	234.997331	74.956127	246.662049	0.080228	0.318966	0.065536	0.007573
0.072090	3.501592E-5	0.084948	3.671221E-5	3358.477011	238.829740	79.565396	251.734576	0.074955	0.333147	0.072090	0.007757
0.078643	3.577766E-5	0.092794	3.759619E-5	3668.662018	242.827339	84.422742	257.084259	0.070076	0.347666	0.078643	0.007925
0.085197	3.668501E-5	0.101363	3.855079E-5	4007.439608	246.997293	89.543245	262.727340	0.065560	0.362527	0.085197	0.008126
0.091750	3.730527E-5	0.110724	3.958175E-5	4377.543254	251.346134	94.943324	268.680319	0.061377	0.377739	0.091750	0.008264
0.098304	3.789453E-5	0.120951	4.069546E-5	4781.904287	255.878351	100.638523	274.957893	0.057500	0.393306	0.098304	0.008394
0.104858	3.877072E-5	0.132121	4.189838E-5	5223.503400	260.602524	106.647695	281.580195	0.053906	0.409235	0.104858	0.008588
0.117965	3.978786E-5	0.144324	4.319838E-5	5705.930540	265.524388	112.990464	288.565496	0.050573	0.425537	0.117965	0.008814
0.131072	4.120645E-5	0.157652	4.460317E-5	6232.849489	270.652747	119.689187	295.936498	0.047480	0.442224	0.131072	0.009128
0.144179	4.285522E-5	0.172212	4.612204E-5	6808.520364	275.994240	126.767273	303.714935	0.044608	0.459311	0.144179	0.009493
0.157286	4.262125E-5	0.188119	4.776490E-5	7437.384099	281.555039	134.248504	311.922909	0.041940	0.476811	0.157286	0.009441
0.170394	4.534312E-5	0.205493	4.954218E-5	8124.178220	287.344992	142.161382	320.588526	0.039461	0.494741	0.170394	0.010044
0.183501	5.288469E-5	0.224470	5.146595E-5	8874.463832	293.372189	150.536763	329.740137	0.037156	0.513126	0.183501	0.011715
0.399814	6.528735E-5	0.245203	5.354971E-5	9694.160702	299.642358	159.405138	339.404685	0.035011	0.531985	0.399814	0.014462
0.599722	8.333775E-5	0.267849	5.580755E-5	10589.396352	306.166806	168.803585	349.618025	0.033016	0.551345	0.599722	0.018461
0.799629	0.000108	0.292581	5.825510E-5	11567.529442	312.949280	178.767629	360.409652	0.031157	0.571235	0.799629	0.023987
0.999536	0.000126	0.319602	6.091092E-5	12635.686151	320.003001	189.342011	371.822966	0.029426	0.591688	0.999536	0.027839
1.199440	0.000146	0.349124	6.379462E-5	13802.843854	327.330693	200.569235	383.892434	0.027813	0.612742	1.199440	0.032239
1.399350	0.000166	0.381365	6.692679E-5	15077.513703	334.943134	212.499694	396.664874	0.026308	0.634435	1.399350	0.036725
1.599260	0.000185	0.416584	7.033194E-5	16470.021468	342.846520	225.187403	410.186668	0.024905	0.656817	1.599260	0.041025
1.799160	0.000207	0.455058	7.403683E-5	17991.194813	351.045745	238.688906	424.506195	0.023595	0.679937	1.799160	0.045796
1.999070	0.000227	0.497088	7.807091E-5	19652.645575	359.548151	253.068830	439.680231	0.022373	0.703852	1.999070	0.050254
2.198980	0.000246	0.542993	8.246598E-5	21467.573730	368.359261	268.398389	455.769942	0.021231	0.728632	2.198980	0.054549
2.398890	0.000267	0.593148	8.725976E-5	23450.381653	377.479214	284.750387	472.835426	0.020163	0.754347	2.398890	0.059178
2.598790	0.000287	0.647923	9.249045E-5	25616.018488	386.911991	302.208645	490.949034	0.019166	0.781079	2.598790	0.063503
2.798700	0.000308	0.707762	9.820411E-5	27981.709334	396.659265	320.867058	510.190397	0.018233	0.808924	2.798700	0.068252
2.998610	0.000330	0.773125	0.000104	30566.446683	406.711010	340.816801	530.631640	0.017360	0.837983	2.998610	0.073056
3.198510	0.000350	0.844541	0.000111	33389.005169	417.069084	362.171806	552.372192	0.016544	0.868374	3.198510	0.077606
3.398420	0.000369	0.922525	0.000119	36472.754564	427.720094	385.048910	575.505987	0.015779	0.900236	3.398420	0.081680
3.598330	0.000392	1.007732	0.000127	39841.250758	438.650349	409.576254	600.139014	0.015063	0.933719	3.598330	0.086929
3.798240	0.000412	1.100803	0.000136	43520.706082	449.841636	435.896627	626.389149	0.014393	0.969000	3.798240	0.091346
3.998140	0.000435	1.202462	0.000146	47540.084355	461.267724	464.164776	654.382803	0.013765	1.006281	3.998140	0.096303
4.198050	0.000456	1.313531	0.000157	51930.675414	472.894804	494.549209	684.257566	0.013176	1.045791	4.198050	0.100979
4.397960	0.000479	1.434845	0.000169	56726.545380	484.684958	527.242438	716.173232	0.012625	1.087804	4.397960	0.106186
4.597860	0.000506	1.567354	0.000182	61966.378288	496.576990	562.437856	750.283312	0.012108	1.132630	4.597860	0.111987
4.797770	0.000535	1.712107	0.000196	67688.952404	508.512419	600.365074	786.780212	0.011623	1.180630	4.797770	0.118417
4.997680	0.000554	1.870215	0.000212	73940.486319	520.405219	641.263277	825.857241	0.011169	1.232238	4.997680	0.122765
5.197590	0.000573	2.042950	0.000229	80768.519982	532.163387	685.409342	867.746413	0.010744	1.287968	5.197590	0.126892
5.397490	0.000603	2.231632	0.000249	88228.257750	543.663556	733.095232	912.687615	0.010345	1.348435	5.397490	0.133570
5.597400	0.000623	2.437715	0.000270	96377.391341	554.756998	784.630620	960.937322	0.009971	1.414368	5.597400	0.137933
5.797310	0.000645	2.662868	0.000293	105277.431051	565.280960	840.384901	1012.812591	0.009620	1.486668	5.797310	0.142824
5.997220	0.000672	2.908785	0.000319	115001.518045	575.017594	900.730919	1068.625950	0.009292	1.566441	5.997220	0.148923
6.197120	0.000688	3.177423	0.000348	125622.731370	583.721846	966.085312	1128.739130	0.008985	1.655044	6.197120	0.152395
6.397030	0.000713	3.470878	0.000379	137223.332371	591.105751	1036.924340	1193.573666	0.008698	1.754211	6.397030	0.157864
6.596940	0.000731	3.791461	0.000414	149896.452514	596.819517	1113.761888	1263.589759	0.008430	1.866162	6.596940	0.161847
6.796850	0.000747	4.141638	0.000452	163741.378757	600.448676	1197.144239	1339.288222	0.008179	1.993749	6.796850	0.165522
6.996750	0.000774	4.524128	0.000495	178862.286850	601.527907	1287.735664	1421.301855	0.007946	2.140775	6.996750	0.171455
7.196660	0.000797	4.941924	0.000541	195382.763803	599.490165	1386.247985	1510.321798	0.007730	2.312378	7.196660	0.176639
7.396570	0.000827	5.398365	0.000592	213427.202401	593.702544	1493.550881	1607.226476	0.007531	2.515655	7.396570	0.183262
7.596470	0.000855	5.896903	0.000649	233136.238547	583.440390	1610.761263	1713.170901	0.007348	2.760798	7.596470	0.189395
7.796380	0.000877	6.441500	0.000711	254667.978620	567.873313	1739.336685	1829.691833	0.007185	3.062896	7.796380	0.194322
7.996290	0.000892	7.036470	0.000780	278189.143653	546.076733	1881.364365	1959.012933	0.007042	3.445238	7.996290	0.197566
8.196190	0.000867	7.686285	0.000855	303881.847276	517.002984	2040.050477	2104.542239	0.006926	3.945916	8.196190	0.192153
