MicroRheology Analysis v9.2.8
10/03/18 5:21:51 PM

Correlation Mode:	Cross
Geometry:	Transmission
Multi-Tau Duration (s):	120
Echo Duration (s):	60
Wavelength (nm):	685.0
Temperature (°C):	25.00
Cuvette Thickness (mm):	10.00
Absorption Length (mm):	111.290
Solvent:	Water
Solvent Refractive Index:	1.329
Particle Radius (nm):	300.0
Mean Count Rate (kHz):	122.2
l* (microns):	913.85



Lag Time (s)	Mean Square Displacement (micron^2)	Fit Lag Time (s)	Mean Square Displacement Fit (micron^2)	Frequency(rad/s)	G1 (Pa)	G2 (Pa)	G* (Pa)	Complex Viscosity (Pa s)	Loss Tangent (-)	Time (s)	Creep Compliance (1/Pa)

1.312500E-6	9.971003E-7	1.312525E-6	9.602298E-7	0.079400	-0.881469	14.286499	14.313666	180.272348	-16.207605	1.312500E-6	0.000228
1.412500E-6	1.001023E-6	1.422957E-6	1.052881E-6	0.086081	-0.372175	15.688682	15.693096	182.305806	-42.154008	1.412500E-6	0.000229
1.512500E-6	1.046285E-6	1.542683E-6	1.151714E-6	0.093325	0.240940	17.163251	17.164942	183.927275	71.234447	1.512500E-6	0.000240
1.612500E-6	1.132975E-6	1.672484E-6	1.256909E-6	0.101178	0.966386	18.705421	18.730368	185.122781	19.356050	1.612500E-6	0.000259
1.812500E-6	1.258497E-6	1.813210E-6	1.368643E-6	0.109691	1.812250	20.309544	20.390239	185.887682	11.206811	1.812500E-6	0.000288
2.012500E-6	1.378141E-6	1.965782E-6	1.487078E-6	0.118919	2.786381	21.969515	22.145507	186.223625	7.884604	2.012500E-6	0.000316
2.212500E-6	1.742247E-6	2.131151E-6	1.612338E-6	0.128925	3.896035	23.677682	23.996077	186.124685	6.077379	2.212500E-6	0.000399
2.412500E-6	2.148746E-6	2.310493E-6	1.744640E-6	0.139775	5.147163	25.424582	25.940367	185.587236	4.939533	2.412500E-6	0.000492
2.612500E-6	2.398735E-6	2.504917E-6	1.884072E-6	0.151534	6.545181	27.201348	27.977719	184.630292	4.155935	2.612500E-6	0.000549
2.812500E-6	2.276940E-6	2.715677E-6	2.030750E-6	0.164284	8.094697	28.997695	30.106318	183.257955	3.582308	2.812500E-6	0.000521
3.012500E-6	2.097984E-6	2.944160E-6	2.184799E-6	0.178109	9.798315	30.801497	32.322426	181.475038	3.143551	3.012500E-6	0.000480
3.212500E-6	2.216743E-6	3.191862E-6	2.346329E-6	0.193093	11.658317	32.602297	34.624069	179.312791	2.796484	3.212500E-6	0.000508
3.612500E-6	2.624257E-6	3.460468E-6	2.515477E-6	0.209342	13.675147	34.387116	37.006532	176.775252	2.514570	3.612500E-6	0.000601
4.012500E-6	3.045969E-6	3.751654E-6	2.692278E-6	0.226957	15.847505	36.143369	39.465004	173.887606	2.280698	4.012500E-6	0.000697
4.412500E-6	3.266161E-6	4.067262E-6	2.876775E-6	0.246050	18.173786	37.859455	41.995534	170.679049	2.083190	4.412500E-6	0.000748
4.812500E-6	3.322986E-6	4.409482E-6	3.069109E-6	0.266755	20.649875	39.521853	44.591414	167.162390	1.913903	4.812500E-6	0.000761
5.212500E-6	3.428919E-6	4.780507E-6	3.269307E-6	0.289199	23.270780	41.118852	47.247108	163.372133	1.766974	5.212500E-6	0.000785
5.612500E-6	3.637391E-6	5.182799E-6	3.477435E-6	0.313535	26.029341	42.637657	49.954944	159.328018	1.638061	5.612500E-6	0.000833
6.012500E-6	3.991562E-6	5.618839E-6	3.693451E-6	0.339912	28.918617	44.068106	52.709434	155.068090	1.523866	6.012500E-6	0.000914
6.412500E-6	4.149890E-6	6.091588E-6	3.917440E-6	0.368517	31.928882	45.398274	55.501863	150.608586	1.421856	6.412500E-6	0.000950
7.212500E-6	4.405452E-6	6.604138E-6	4.149414E-6	0.399526	35.049565	46.618570	58.324635	145.984643	1.330076	7.212500E-6	0.001009
8.012500E-6	4.708152E-6	7.159888E-6	4.389398E-6	0.433141	38.269377	47.720032	61.169819	141.223786	1.246951	8.012500E-6	0.001078
8.812500E-6	5.155721E-6	7.762304E-6	4.637315E-6	0.469583	41.576179	48.694819	64.029400	136.353883	1.171219	8.812500E-6	0.001180
9.612500E-6	5.381352E-6	8.415426E-6	4.893194E-6	0.509090	44.957834	49.536586	66.896040	131.403252	1.101845	9.612500E-6	0.001232
1.041250E-5	5.672245E-6	9.123598E-6	5.157035E-6	0.551935	48.399499	50.238723	69.759880	126.391556	1.038001	1.041250E-5	0.001299
1.121250E-5	5.824761E-6	9.891261E-6	5.428732E-6	0.598373	51.887089	50.797607	72.613131	121.350907	0.979003	1.121250E-5	0.001334
1.201250E-5	6.111632E-6	1.072352E-5	5.708273E-6	0.648714	55.407304	51.210578	75.448609	116.304909	0.924257	1.201250E-5	0.001399
1.281250E-5	6.347901E-6	1.162581E-5	5.995596E-6	0.703302	58.945140	51.475349	78.257530	111.271517	0.873276	1.281250E-5	0.001453
1.441250E-5	6.622327E-6	1.260389E-5	6.290596E-6	0.762480	62.486186	51.591888	81.032378	106.274781	0.825653	1.441250E-5	0.001516
1.601250E-5	6.825300E-6	1.366449E-5	6.593297E-6	0.826635	66.016364	51.561089	83.765782	101.333428	0.781035	1.601250E-5	0.001563
1.761250E-5	7.107755E-6	1.481421E-5	6.903509E-6	0.896187	69.522319	51.385215	86.451103	96.465427	0.739118	1.761250E-5	0.001627
1.921250E-5	7.433490E-6	1.606049E-5	7.221119E-6	0.971601	72.990085	51.067243	89.080950	91.684691	0.699646	1.921250E-5	0.001702
2.081250E-5	7.782891E-6	1.741214E-5	7.546184E-6	1.053347	76.407106	50.611931	91.649405	87.007771	0.662398	2.081250E-5	0.001782
2.241250E-5	8.076848E-6	1.887692E-5	7.878326E-6	1.141965	79.762308	50.024733	94.151472	82.446930	0.627173	2.241250E-5	0.001849
2.401250E-5	8.505422E-6	2.046549E-5	8.217656E-6	1.238056	83.044033	49.311539	96.581258	78.010435	0.593800	2.401250E-5	0.001947
2.561250E-5	8.995016E-6	2.218729E-5	8.563833E-6	1.342223	86.242700	48.479781	98.934789	73.709627	0.562132	2.561250E-5	0.002059
2.881250E-5	9.519822E-6	2.405406E-5	8.916804E-6	1.455176	89.348412	47.536872	101.207178	69.549798	0.532039	2.881250E-5	0.002180
3.201250E-5	1.003223E-5	2.607822E-5	9.276438E-6	1.577615	92.353061	46.491507	103.395107	65.538890	0.503411	3.201250E-5	0.002297
3.521250E-5	1.045398E-5	2.827255E-5	9.642475E-6	1.710344	95.249998	45.352409	105.495986	61.681157	0.476141	3.521250E-5	0.002394
3.841250E-5	1.078638E-5	3.065149E-5	1.001474E-5	1.854249	98.033337	44.128515	107.507493	57.978988	0.450138	3.841250E-5	0.002470
4.161250E-5	1.116936E-5	3.323035E-5	1.039301E-5	2.010277	100.697920	42.829136	109.427629	54.434113	0.425323	4.161250E-5	0.002557
4.481250E-5	1.157669E-5	3.602651E-5	1.077713E-5	2.179434	103.239486	41.463856	111.254855	51.047600	0.401628	4.481250E-5	0.002651
4.801250E-5	1.204902E-5	3.905737E-5	1.116678E-5	2.362797	105.656001	40.042220	112.989247	47.820120	0.378987	4.801250E-5	0.002759
5.121250E-5	1.252369E-5	4.234429E-5	1.156190E-5	2.561635	107.944608	38.573396	114.629600	44.748603	0.357344	5.121250E-5	0.002867
5.761250E-5	1.310172E-5	4.590735E-5	1.196207E-5	2.777147	110.105353	37.066990	116.177238	41.833302	0.336650	5.761250E-5	0.003000
6.401250E-5	1.372239E-5	4.976987E-5	1.236703E-5	3.010849	112.137572	35.531654	117.632195	39.069440	0.316858	6.401250E-5	0.003142
7.041250E-5	1.429130E-5	5.395691E-5	1.277651E-5	3.264183	114.042230	33.976475	118.995928	36.455041	0.297929	7.041250E-5	0.003272
7.681250E-5	1.485899E-5	5.849730E-5	1.319036E-5	3.538827	115.820990	32.409719	120.270078	33.985856	0.279826	7.681250E-5	0.003402
8.321250E-5	1.535791E-5	6.341979E-5	1.360818E-5	3.836580	117.476067	30.839389	121.456553	31.657503	0.262516	8.321250E-5	0.003516
8.961250E-5	1.569657E-5	6.875553E-5	1.402959E-5	4.159369	119.010731	29.272982	122.557992	29.465527	0.245969	8.961250E-5	0.003594
9.601250E-5	1.613137E-5	7.454107E-5	1.445440E-5	4.509371	120.427952	27.717597	123.576522	27.404381	0.230159	9.601250E-5	0.003693
0.000102	1.662036E-5	8.081178E-5	1.488209E-5	4.888749	121.732256	26.179945	124.515588	25.469828	0.215062	0.000102	0.003805
0.000115	1.715553E-5	8.761262E-5	1.531260E-5	5.300122	122.927837	24.665902	125.378067	23.655694	0.200654	0.000115	0.003928
0.000128	1.780775E-5	9.498362E-5	1.574529E-5	5.746112	124.019313	23.181302	126.167201	21.956970	0.186917	0.000128	0.004077
0.000141	1.842151E-5	0.000103	1.617992E-5	6.229571	125.011859	21.731282	126.886616	20.368434	0.173834	0.000141	0.004218
0.000154	1.889907E-5	0.000112	1.661620E-5	6.753685	125.911118	20.320191	127.540268	18.884545	0.161385	0.000154	0.004327
0.000166	1.937449E-5	0.000121	1.705357E-5	7.322042	126.722105	18.952173	128.131482	17.499420	0.149557	0.000166	0.004436
0.000179	1.976284E-5	0.000131	1.749170E-5	7.938100	127.450539	17.631114	128.664276	16.208448	0.138337	0.000179	0.004525
0.000192	2.016905E-5	0.000142	1.793025E-5	8.605928	128.102368	16.359913	129.142803	15.006262	0.127710	0.000192	0.004618
0.000205	2.062590E-5	0.000154	1.836885E-5	9.330088	128.683081	15.141244	129.570801	13.887414	0.117663	0.000205	0.004722
0.000230	2.111569E-5	0.000167	1.880683E-5	10.115135	129.198395	13.977570	129.952290	12.847312	0.108187	0.000230	0.004835
0.000256	2.164596E-5	0.000181	1.924408E-5	10.966200	129.654024	12.870740	130.291296	11.881170	0.099270	0.000256	0.004956
0.000282	2.219068E-5	0.000197	1.967994E-5	11.888919	130.055491	11.822289	130.591720	10.984322	0.090902	0.000282	0.005081
0.000307	2.261820E-5	0.000213	2.011409E-5	12.889255	130.408343	10.833410	130.857551	10.152453	0.083073	0.000307	0.005179
0.000333	2.300876E-5	0.000231	2.054612E-5	13.973892	130.717715	9.905107	131.092456	9.381241	0.075775	0.000333	0.005268
0.000358	2.331998E-5	0.000250	2.097558E-5	15.149488	130.989040	9.037969	131.300470	8.666991	0.068998	0.000358	0.005339
0.000384	2.363233E-5	0.000271	2.140202E-5	16.424304	131.227141	8.232319	131.485108	8.005521	0.062733	0.000384	0.005411
0.000410	2.399377E-5	0.000294	2.182493E-5	17.806141	131.437043	7.488323	131.650185	7.393527	0.056973	0.000410	0.005494
0.000461	2.441396E-5	0.000319	2.224403E-5	19.304653	131.623176	6.805977	131.799020	6.827319	0.051708	0.000461	0.005590
0.000512	2.484794E-5	0.000346	2.265879E-5	20.928704	131.790194	6.185089	131.935252	6.304034	0.046931	0.000512	0.005689
0.000563	2.525512E-5	0.000375	2.306888E-5	22.689760	131.942269	5.625188	132.062126	5.820340	0.042634	0.000563	0.005782
0.000614	2.557979E-5	0.000407	2.347376E-5	24.598904	132.083508	5.125825	132.182930	5.373529	0.038807	0.000614	0.005857
0.000666	2.586855E-5	0.000441	2.387312E-5	26.668865	132.217703	4.686428	132.300732	4.960869	0.035445	0.000666	0.005923
0.000717	2.611168E-5	0.000478	2.426643E-5	28.912515	132.348614	4.306287	132.418653	4.579977	0.032537	0.000717	0.005978
0.000768	2.636070E-5	0.000518	2.465353E-5	31.345346	132.479684	3.984599	132.539593	4.228366	0.030077	0.000768	0.006035
0.000819	2.664655E-5	0.000562	2.503379E-5	33.983017	132.614172	3.720608	132.666354	3.903902	0.028056	0.000819	0.006101
0.000922	2.695366E-5	0.000609	2.540701E-5	36.842256	132.755196	3.513477	132.801682	3.604602	0.026466	0.000922	0.006171
0.001024	2.728047E-5	0.000660	2.577273E-5	39.941812	132.905729	3.362309	132.948253	3.328548	0.025298	0.001024	0.006246
0.001126	2.759377E-5	0.000716	2.613075E-5	43.302704	133.068517	3.266235	133.108597	3.073910	0.024546	0.001126	0.006318
0.001229	2.785360E-5	0.000776	2.648057E-5	46.946662	133.246128	3.224409	133.285135	2.839076	0.024199	0.001229	0.006377
0.001331	2.807161E-5	0.000841	2.682200E-5	50.896487	133.441068	3.235976	133.480299	2.622584	0.024250	0.001331	0.006427
0.001434	2.825839E-5	0.000912	2.715473E-5	55.179193	133.655616	3.300107	133.696351	2.422949	0.024691	0.001434	0.006470
0.001536	2.844688E-5	0.000989	2.747854E-5	59.821767	133.891983	3.416014	133.935553	2.238910	0.025513	0.001536	0.006513
0.001638	2.867011E-5	0.001072	2.779315E-5	64.855269	134.152221	3.582950	134.200059	2.069224	0.026708	0.001638	0.006564
0.001843	2.893063E-5	0.001162	2.809825E-5	70.312262	134.438261	3.800204	134.491961	1.912781	0.028267	0.001843	0.006624
0.002048	2.922081E-5	0.001260	2.839382E-5	76.227810	134.752015	4.067157	134.813379	1.768559	0.030183	0.002048	0.006690
0.002253	2.951557E-5	0.001366	2.867957E-5	82.642458	135.095174	4.383234	135.166263	1.635555	0.032446	0.002253	0.006758
0.002458	2.976964E-5	0.001481	2.895529E-5	89.596283	135.469430	4.747895	135.552606	1.512927	0.035048	0.002458	0.006816
0.002662	3.000353E-5	0.001606	2.922104E-5	97.135475	135.876354	5.160695	135.974322	1.399842	0.037981	0.002662	0.006870
0.002867	3.019925E-5	0.001741	2.947658E-5	105.308561	136.317468	5.621242	136.433319	1.295558	0.041236	0.002867	0.006914
0.003072	3.039766E-5	0.001887	2.972187E-5	114.168853	136.794242	6.129238	136.931487	1.199377	0.044806	0.003072	0.006960
0.003277	3.060951E-5	0.002046	2.995694E-5	123.774106	137.308138	6.684506	137.470751	1.110658	0.048683	0.003277	0.007008
0.003686	3.087425E-5	0.002218	3.018166E-5	134.188278	137.860599	7.287010	138.053053	1.028801	0.052858	0.003686	0.007069
0.004096	3.115312E-5	0.002405	3.039611E-5	145.481380	138.452717	7.936566	138.680006	0.953249	0.057323	0.004096	0.007133
0.004506	3.142526E-5	0.002607	3.060033E-5	157.719769	139.086079	8.633250	139.353759	0.883553	0.062071	0.004506	0.007195
0.004915	3.165464E-5	0.002827	3.079437E-5	170.991276	139.761884	9.377341	140.076118	0.819200	0.067095	0.004915	0.007248
0.005325	3.185378E-5	0.003064	3.097836E-5	185.379568	140.481404	10.169000	140.848974	0.759787	0.072387	0.005325	0.007293
0.005734	3.200359E-5	0.003322	3.115243E-5	200.978362	141.245802	11.008477	141.674145	0.704922	0.077938	0.005734	0.007327
0.006144	3.217685E-5	0.003602	3.131668E-5	217.885799	142.056690	11.896386	142.553945	0.654260	0.083744	0.006144	0.007367
0.006554	3.236183E-5	0.003905	3.147134E-5	236.222046	142.915039	12.833280	143.490074	0.607437	0.089797	0.006554	0.007409
0.007373	3.256463E-5	0.004233	3.161663E-5	256.097386	143.822254	13.819683	144.484686	0.564179	0.096089	0.007373	0.007456
0.008192	3.277925E-5	0.004590	3.175280E-5	277.644561	144.779650	14.856439	145.539895	0.524195	0.102614	0.008192	0.007505
0.009011	3.296703E-5	0.004976	3.188006E-5	301.003631	145.788763	15.944572	146.658081	0.487230	0.109368	0.009011	0.007548
0.009830	3.307750E-5	0.005394	3.199876E-5	326.332976	146.850753	17.085071	147.841277	0.453038	0.116343	0.009830	0.007573
0.010650	3.313408E-5	0.005848	3.210922E-5	353.791331	147.967053	18.278961	149.091814	0.421412	0.123534	0.010650	0.007586
0.011469	3.313831E-5	0.006340	3.221176E-5	383.558200	149.139224	19.527602	150.412218	0.392150	0.130935	0.011469	0.007587
0.012288	3.304777E-5	0.006874	3.230674E-5	415.831058	150.368721	20.832438	151.804950	0.365064	0.138542	0.012288	0.007567
0.013107	3.282858E-5	0.007452	3.239463E-5	450.818944	151.657076	22.194983	153.272587	0.339987	0.146350	0.013107	0.007516
0.014746	3.250096E-5	0.008079	3.247577E-5	488.749192	153.006229	23.617155	154.818204	0.316764	0.154354	0.014746	0.007441
0.016384	3.216588E-5	0.008759	3.255064E-5	529.881150	154.417268	25.100613	156.444026	0.295244	0.162551	0.016384	0.007365
0.018022	3.198730E-5	0.009496	3.261970E-5	574.463008	155.892272	26.647295	158.153339	0.275306	0.170934	0.018022	0.007324
0.019661	3.209798E-5	0.010295	3.268345E-5	622.796608	157.433291	28.259738	159.949535	0.256825	0.179503	0.019661	0.007349
0.021299	3.247208E-5	0.011161	3.274240E-5	675.207270	159.041449	29.939951	161.835049	0.239682	0.188253	0.021299	0.007435
0.022938	3.296145E-5	0.012100	3.279707E-5	732.007899	160.719649	31.690737	163.814250	0.223788	0.197180	0.022938	0.007547
0.024576	3.346525E-5	0.013119	3.284801E-5	793.604130	162.469608	33.515119	165.890435	0.209034	0.206285	0.024576	0.007662
0.026214	3.376081E-5	0.014222	3.289578E-5	860.387670	164.292899	35.415568	168.066711	0.195338	0.215564	0.026214	0.007730
0.029491	3.375184E-5	0.015419	3.294099E-5	932.769515	166.192679	37.395625	170.347995	0.182626	0.225014	0.029491	0.007728
0.032768	3.354506E-5	0.016716	3.298423E-5	1011.259735	168.170872	39.458917	172.738092	0.170815	0.234636	0.032768	0.007680
0.036045	3.330604E-5	0.018123	3.302613E-5	1096.356544	170.229616	41.608795	175.241017	0.159839	0.244427	0.036045	0.007626
0.039322	3.330510E-5	0.019648	3.306734E-5	1188.600592	172.371699	43.849260	177.861633	0.149640	0.254388	0.039322	0.007625
0.042598	3.361593E-5	0.021301	3.310851E-5	1288.603654	174.599736	46.184666	180.604793	0.140155	0.264517	0.042598	0.007697
0.045875	3.394029E-5	0.023093	3.315033E-5	1397.016970	176.917166	48.620044	183.476408	0.131334	0.274818	0.045875	0.007771
0.049152	3.412937E-5	0.025036	3.319349E-5	1514.584030	179.325634	51.159777	186.480578	0.123123	0.285290	0.049152	0.007814
0.052429	3.417927E-5	0.027143	3.323868E-5	1642.010987	181.829161	53.809291	189.624058	0.115483	0.295933	0.052429	0.007826
0.058982	3.422541E-5	0.029426	3.328666E-5	1780.178597	184.430058	56.574068	192.912082	0.108367	0.306751	0.058982	0.007836
0.065536	3.444760E-5	0.031903	3.333818E-5	1929.946990	187.132895	59.460731	196.352486	0.101740	0.317746	0.065536	0.007887
0.072090	3.461916E-5	0.034587	3.339400E-5	2092.367853	189.939150	62.474963	199.949998	0.095562	0.328921	0.072090	0.007926
0.078643	3.487660E-5	0.037497	3.345490E-5	2268.393143	192.854074	65.624129	203.713574	0.089805	0.340279	0.078643	0.007985
0.085197	3.510256E-5	0.040652	3.352171E-5	2459.267454	195.880376	68.915644	207.649916	0.084436	0.351825	0.085197	0.008037
0.091750	3.519942E-5	0.044073	3.359525E-5	2666.185988	199.022695	72.357726	211.767971	0.079427	0.363565	0.091750	0.008059
0.098304	3.533295E-5	0.047781	3.367639E-5	2890.551936	202.283894	75.958446	216.075124	0.074752	0.375504	0.098304	0.008090
0.104858	3.556083E-5	0.051801	3.376597E-5	3133.760670	205.668840	79.727103	220.581238	0.070389	0.387648	0.104858	0.008142
0.117965	3.572629E-5	0.056160	3.386497E-5	3397.447523	209.180921	83.673157	225.295039	0.066313	0.400004	0.117965	0.008180
0.131072	3.610586E-5	0.060885	3.397425E-5	3683.273979	212.825928	87.807877	230.228363	0.062506	0.412581	0.131072	0.008267
0.144179	3.651495E-5	0.066009	3.409485E-5	3993.210441	216.607430	92.142390	235.391161	0.058948	0.425389	0.144179	0.008360
0.157286	3.645246E-5	0.071562	3.422771E-5	4329.219491	220.530090	96.688510	240.794910	0.055621	0.438437	0.157286	0.008346
0.170394	3.707383E-5	0.077584	3.437394E-5	4693.487614	224.598623	101.459174	246.451832	0.052509	0.451736	0.170394	0.008488
0.183501	3.874933E-5	0.084112	3.453458E-5	5088.383864	228.817933	106.468325	252.375020	0.049598	0.465297	0.183501	0.008872
0.399815	4.197586E-5	0.091189	3.471077E-5	5516.481411	233.194422	111.732109	258.580167	0.046874	0.479137	0.399815	0.009611
0.599722	4.617315E-5	0.098862	3.490369E-5	5980.709151	237.730413	117.264946	265.078888	0.044322	0.493269	0.599722	0.010572
0.799630	5.092676E-5	0.107180	3.511458E-5	6483.835598	242.434982	123.086372	271.891477	0.041934	0.507709	0.799630	0.011660
0.999537	5.529083E-5	0.116199	3.534474E-5	7029.505150	247.310065	129.213697	279.031267	0.039694	0.522476	0.999537	0.012659
1.199450	5.938233E-5	0.125975	3.559548E-5	7620.977547	252.361940	135.666682	286.517011	0.037596	0.537588	1.199450	0.013596
1.399350	6.350914E-5	0.136574	3.586829E-5	8262.161764	257.596550	142.467725	294.368876	0.035629	0.553065	1.399350	0.014541
1.599260	6.794212E-5	0.148067	3.616473E-5	8957.309975	263.020235	149.641355	302.608954	0.033783	0.568935	1.599260	0.015556
1.799170	7.208629E-5	0.160525	3.648625E-5	9711.091416	268.635836	157.210965	311.256325	0.032052	0.585220	1.799170	0.016505
1.999070	7.657278E-5	0.174031	3.683464E-5	10528.131226	274.450006	165.204057	320.336052	0.030427	0.601946	1.999070	0.017532
2.198980	8.094924E-5	0.188675	3.721173E-5	11413.881174	280.469973	173.652451	329.876613	0.028901	0.619148	2.198980	0.018534
2.398890	8.511910E-5	0.204551	3.761940E-5	12374.434042	286.695836	182.584156	339.899215	0.027468	0.636857	2.398890	0.019489
2.598800	8.963144E-5	0.221760	3.805959E-5	13415.422956	293.137490	192.036657	350.439247	0.026122	0.655108	2.598800	0.020522
2.798700	9.391561E-5	0.240421	3.853467E-5	14544.285710	299.795613	202.045301	361.524153	0.024857	0.673943	2.798700	0.021503
2.998610	9.832353E-5	0.260649	3.904681E-5	15767.949833	306.677157	212.652070	373.191347	0.023668	0.693407	2.998610	0.022512
3.198520	0.000103	0.282579	3.959859E-5	17094.807283	313.783646	223.899654	385.475332	0.022549	0.713548	3.198520	0.023587
3.398430	0.000107	0.306355	4.019270E-5	18533.306748	321.115966	235.832475	398.412374	0.021497	0.734415	3.398430	0.024601
3.598330	0.000112	0.332132	4.083204E-5	20092.476019	328.679231	248.504106	412.048938	0.020508	0.756069	3.598330	0.025637
3.798240	0.000117	0.360082	4.151980E-5	21783.003262	336.473588	261.970467	426.430535	0.019576	0.778577	3.798240	0.026683
3.998150	0.000121	0.390376	4.225910E-5	23615.934464	344.499030	276.292009	441.607128	0.018700	0.802011	3.998150	0.027739
4.198060	0.000125	0.423227	4.305395E-5	25603.360109	352.748974	291.528277	457.624928	0.017874	0.826447	4.198060	0.028535
4.397960	0.000130	0.458835	4.390790E-5	27757.341377	361.225549	307.754486	474.548966	0.017096	0.851973	4.397960	0.029856
4.597870	0.000134	0.497444	4.482555E-5	30092.973970	369.918651	325.044317	492.436408	0.016364	0.878691	4.597870	0.030765
4.797780	0.000138	0.539302	4.581141E-5	32624.846217	378.822704	343.482623	511.357950	0.015674	0.906711	4.797780	0.031576
4.997690	0.000144	0.584678	4.687045E-5	35369.998884	387.924870	363.158752	531.384968	0.015024	0.936157	4.997690	0.032889
5.197590	0.000147	0.633868	4.800818E-5	38346.179093	397.211101	384.171148	552.597620	0.014411	0.967171	5.197590	0.033744
5.397500	0.000153	0.687202	4.923075E-5	41573.031856	406.659135	406.621599	575.076322	0.013833	0.999908	5.397500	0.034933
5.597410	0.000157	0.745032	5.054482E-5	45070.854622	416.246939	430.625764	598.915739	0.013288	1.034544	5.597410	0.036003
5.797320	0.000160	0.807718	5.195713E-5	48862.750150	425.948868	456.315595	624.224608	0.012775	1.071292	5.797320	0.036692
5.997220	0.000167	0.875684	5.347585E-5	52974.737918	435.719222	483.814443	651.097271	0.012291	1.110381	5.997220	0.038131
6.197130	0.000170	0.949354	5.510913E-5	57431.199995	445.527339	513.285419	679.673841	0.011835	1.152085	6.197130	0.039019
6.397040	0.000175	1.029229	5.686680E-5	62264.608801	455.305342	544.871048	710.061556	0.011404	1.196716	6.397040	0.040100
6.596950	0.000180	1.115838	5.875938E-5	67502.740538	465.001612	578.755334	742.417831	0.010998	1.244631	6.596950	0.041320
6.796850	0.000184	1.209723	6.079773E-5	73182.370971	474.537893	615.128760	776.897421	0.010616	1.296269	6.796850	0.042240
6.996760	0.000189	1.311510	6.299463E-5	79340.603062	483.819470	654.184365	813.657460	0.010255	1.352125	6.996760	0.043299
7.196670	0.000194	1.421863	6.536389E-5	86015.532512	492.748539	696.153567	852.895604	0.009916	1.412797	7.196670	0.044432
7.396580	0.000198	1.541512	6.792092E-5	93252.943769	501.196465	741.273951	894.810017	0.009596	1.479009	7.396580	0.045241
7.596480	0.000203	1.671198	7.068172E-5	101099.346179	509.017686	789.804174	939.622072	0.009294	1.551624	7.596480	0.046504
7.796390	0.000207	1.811809	7.366578E-5	109605.876419	516.043432	842.032049	987.582298	0.009010	1.631708	7.796390	0.047481
7.996300	0.000212	1.964290	7.689430E-5	118829.403739	522.067231	898.249244	1038.944608	0.008743	1.720562	7.996300	0.048648
8.196210	0.000218	2.129551	8.038832E-5	128827.735880	526.859496	958.785965	1094.007064	0.008492	1.819813	8.196210	0.049943
8.396110	0.000223	2.308717	8.417421E-5	139666.986603	530.149826	1024.007369	1153.104475	0.008256	1.931543	8.396110	0.051030
8.596020	0.000228	2.502967	8.828042E-5	151420.213978	531.613058	1094.276174	1216.574201	0.008034	2.058407	8.596020	0.052316
8.795930	0.000232	2.713577	9.273851E-5	164160.805057	530.885449	1170.001104	1284.812027	0.007827	2.203867	8.795930	0.053132
8.995840	0.000237	2.941942	9.758390E-5	177972.713737	527.537786	1251.616303	1358.248683	0.007632	2.372562	8.995840	0.054265
9.195740	0.000243	3.189434	0.000103	192945.931699	521.077608	1339.609891	1437.385311	0.007450	2.570845	9.195740	0.055566
9.395650	0.000247	3.457823	0.000109	209182.814542	510.919016	1434.448212	1522.721220	0.007279	2.807584	9.395650	0.056611
9.595560	0.000252	3.748757	0.000115	226783.994059	496.404706	1536.657630	1614.848075	0.007121	3.095574	9.595560	0.057664
9.795470	0.000257	4.064219	0.000122	245865.675380	476.763624	1646.770299	1714.396678	0.006973	3.454060	9.795470	0.058790
9.995370	0.000260	4.406122	0.000129	266549.124740	451.115771	1765.409711	1822.135254	0.006836	3.913429	9.995370	0.059565
10.195300	0.000268	4.776866	0.000137	288978.258064	418.424170	1893.166288	1938.854657	0.006709	4.524515	10.195300	0.061393
10.395200	0.000272	5.178848	0.000146	313296.752898	377.515055	2030.623161	2065.417159	0.006593	5.378920	10.395200	0.062193
10.595100	0.000277	5.614524	0.000156	339655.508614	327.043636	2178.461656	2202.873743	0.006486	6.661073	10.595100	0.063420
10.795000	0.000284	6.087026	0.000167	368232.258531	265.440762	2337.372809	2352.396746	0.006388	8.805629	10.795000	0.064977
10.994900	0.000287	6.599190	0.000179	399214.848119	190.903909	2508.100316	2515.355144	0.006301	13.138025	10.994900	0.065675
11.194800	0.000293	7.154380	0.000192	432808.045632	101.351233	2691.450472	2693.358075	0.006223	26.555676	11.194800	0.067023
11.394700	0.000297	7.756463	0.000206	469230.029878	-5.612305	2888.308057	2888.313509	0.006155	-514.638438	11.394700	0.068083
11.594600	0.000303	8.409093	0.000222	508703.503875	-132.839990	3100.077211	3102.922039	0.006100	-23.336927	11.594600	0.069261
11.794500	0.000308	9.116503	0.000240	551507.991642	-283.798510	3328.583790	3340.660360	0.006057	-11.728687	11.794500	0.070504
11.994400	0.000312	9.883563	0.000259	597913.137890	-462.813337	3576.863617	3606.681233	0.006032	-7.728523	11.994400	0.071462
12.194400	0.000318	10.715287	0.000281	648221.118207	-675.706129	3850.133125	3908.977341	0.006030	-5.697940	12.194400	0.072752
12.394300	0.000324	11.616943	0.000305	702761.948278	-930.908841	4157.581663	4260.525385	0.006063	-4.466153	12.394300	0.074138
