MicroRheology Analysis v9.2.8
10/03/18 5:24:46 PM

Correlation Mode:	Cross
Geometry:	Transmission
Multi-Tau Duration (s):	120
Echo Duration (s):	60
Wavelength (nm):	685.0
Temperature (°C):	39.98
Cuvette Thickness (mm):	10.00
Absorption Length (mm):	188.537
Solvent:	Water
Solvent Refractive Index:	1.328
Particle Radius (nm):	300.0
Mean Count Rate (kHz):	130.2
l* (microns):	904.66



Lag Time (s)	Mean Square Displacement (micron^2)	Fit Lag Time (s)	Mean Square Displacement Fit (micron^2)	Frequency(rad/s)	G1 (Pa)	G2 (Pa)	G* (Pa)	Complex Viscosity (Pa s)	Loss Tangent (-)	Time (s)	Creep Compliance (1/Pa)

1.212500E-6	1.921319E-6	1.212521E-6	1.446379E-6	0.263276	0.533338	5.139203	5.166803	19.625057	9.635926	1.212500E-6	0.000419
1.312500E-6	1.517814E-6	1.334522E-6	1.575654E-6	0.289771	0.468550	5.617899	5.637404	19.454667	11.989960	1.312500E-6	0.000331
1.412500E-6	1.332790E-6	1.468814E-6	1.712567E-6	0.318931	0.412900	6.148547	6.162396	19.322020	14.891146	1.412500E-6	0.000291
1.512500E-6	1.365700E-6	1.616618E-6	1.857297E-6	0.351021	0.369134	6.737286	6.747391	19.222195	18.251588	1.512500E-6	0.000298
1.612500E-6	1.795489E-6	1.779292E-6	2.010030E-6	0.386345	0.340645	7.390285	7.398132	19.149037	21.694975	1.612500E-6	0.000391
1.812500E-6	2.132497E-6	1.958354E-6	2.170964E-6	0.425222	0.331588	8.114056	8.120829	19.097843	24.470305	1.812500E-6	0.000465
2.012500E-6	2.374813E-6	2.155387E-6	2.340222E-6	0.468010	0.346954	8.915389	8.922138	19.063992	25.696157	2.012500E-6	0.000518
2.212500E-6	2.666956E-6	2.372274E-6	2.518030E-6	0.515106	0.392669	9.801086	9.808949	19.042598	24.960198	2.212500E-6	0.000581
2.412500E-6	2.937254E-6	2.611018E-6	2.704553E-6	0.566941	0.475667	10.777826	10.788317	19.028996	22.658348	2.412500E-6	0.000640
2.612500E-6	3.029779E-6	2.873729E-6	2.899875E-6	0.623984	0.604002	11.852590	11.867970	19.019685	19.623429	2.612500E-6	0.000661
2.812500E-6	2.959211E-6	3.162905E-6	3.104198E-6	0.686774	0.786884	13.031741	13.055476	19.009845	16.561199	2.812500E-6	0.000645
3.012500E-6	2.649037E-6	3.481220E-6	3.317658E-6	0.755888	1.034690	14.321059	14.358388	18.995389	13.840922	3.012500E-6	0.000577
3.212500E-6	2.706505E-6	3.831484E-6	3.540295E-6	0.831950	1.359050	15.726087	15.784702	18.973143	11.571385	3.212500E-6	0.000590
3.612500E-6	3.072222E-6	4.217055E-6	3.772297E-6	0.915676	1.772735	17.250896	17.341741	18.938736	9.731234	3.612500E-6	0.000670
4.012500E-6	3.655101E-6	4.641429E-6	4.013718E-6	1.007818	2.289600	18.898591	19.036781	18.889110	8.254101	4.012500E-6	0.000797
4.412500E-6	4.052942E-6	5.108474E-6	4.264607E-6	1.109215	2.924753	20.671757	20.877637	18.821987	7.067864	4.412500E-6	0.000884
4.812500E-6	4.234802E-6	5.622579E-6	4.525063E-6	1.220850	3.693927	22.569744	22.870034	18.732878	6.109959	4.812500E-6	0.000923
5.212500E-6	4.329336E-6	6.188301E-6	4.795030E-6	1.343696	4.613642	24.591286	25.020332	18.620530	5.330125	5.212500E-6	0.000944
5.612500E-6	4.515770E-6	6.810981E-6	5.074583E-6	1.478913	5.700799	26.732232	27.333338	18.482043	4.689208	5.612500E-6	0.000984
6.012500E-6	4.804239E-6	7.496416E-6	5.363730E-6	1.627725	6.972568	28.986839	29.813646	18.316139	4.157269	6.012500E-6	0.001047
6.412500E-6	4.873492E-6	8.250678E-6	5.662329E-6	1.791533	8.445685	31.345982	32.463829	18.120700	3.711479	6.412500E-6	0.001062
7.212500E-6	5.194769E-6	9.081023E-6	5.970433E-6	1.971810	10.136207	33.798316	35.285534	17.894999	3.334415	7.212500E-6	0.001132
8.012500E-6	5.514449E-6	9.994756E-6	6.287815E-6	2.170204	12.059659	36.330697	38.279954	17.638876	3.012581	8.012500E-6	0.001202
8.812500E-6	5.956001E-6	1.100048E-5	6.614413E-6	2.388601	14.229474	38.925764	41.445060	17.351187	2.735573	8.812500E-6	0.001298
9.612500E-6	6.241586E-6	1.210756E-5	6.950090E-6	2.628940	16.657767	41.565405	44.779058	17.033121	2.495257	9.612500E-6	0.001361
1.041250E-5	6.546017E-6	1.332588E-5	7.294555E-6	2.893511	19.353586	44.227304	48.276450	16.684385	2.285225	1.041250E-5	0.001427
1.121250E-5	6.679107E-6	1.466682E-5	7.647622E-6	3.184657	22.323692	46.888673	51.931636	16.306822	2.100400	1.121250E-5	0.001456
1.201250E-5	7.013555E-6	1.614261E-5	8.008993E-6	3.505105	25.571977	49.524626	55.737013	15.901665	1.936676	1.201250E-5	0.001529
1.281250E-5	7.240188E-6	1.776702E-5	8.378396E-6	3.857837	29.098115	52.108146	59.682151	15.470367	1.790774	1.281250E-5	0.001578
1.441250E-5	7.581252E-6	1.955482E-5	8.755444E-6	4.246022	32.898758	54.612596	63.756286	15.015533	1.660020	1.441250E-5	0.001653
1.601250E-5	7.919790E-6	2.152286E-5	9.139825E-6	4.673293	36.966469	57.010245	67.946213	14.539257	1.542215	1.601250E-5	0.001727
1.761250E-5	8.221689E-6	2.368843E-5	9.530955E-6	5.143556	41.290285	59.274261	72.237979	14.044366	1.435550	1.761250E-5	0.001792
1.921250E-5	8.532725E-6	2.607235E-5	9.928528E-6	5.661198	45.854413	61.377575	76.614841	13.533326	1.338531	1.921250E-5	0.001860
2.081250E-5	8.799954E-6	2.869587E-5	1.033192E-5	6.230858	50.639922	63.295643	81.060102	13.009460	1.249916	2.081250E-5	0.001918
2.241250E-5	9.076752E-6	3.158341E-5	1.074064E-5	6.857791	55.625337	65.006053	85.556794	12.475853	1.168641	2.241250E-5	0.001979
2.401250E-5	9.410859E-6	3.476126E-5	1.115407E-5	7.547890	60.785002	66.487855	90.085800	11.935229	1.093820	2.401250E-5	0.002052
2.561250E-5	9.860643E-6	3.825965E-5	1.157172E-5	8.307415	66.091298	67.724001	94.628748	11.390878	1.024704	2.561250E-5	0.002150
2.881250E-5	1.029524E-5	4.210987E-5	1.199283E-5	9.143458	71.512909	68.699550	99.165137	10.845474	0.960659	2.881250E-5	0.002244
3.201250E-5	1.077121E-5	4.634700E-5	1.241669E-5	10.063442	77.018825	69.404905	103.677096	10.302349	0.901142	3.201250E-5	0.002348
3.521250E-5	1.125222E-5	5.101092E-5	1.284269E-5	11.076044	82.577114	69.833226	108.146471	9.763998	0.845673	3.521250E-5	0.002453
3.841250E-5	1.157198E-5	5.614341E-5	1.327000E-5	12.190724	88.153505	69.981042	112.553928	9.232752	0.793854	3.841250E-5	0.002523
4.161250E-5	1.193524E-5	6.179331E-5	1.369801E-5	13.417425	93.715721	69.850152	116.883190	8.711298	0.745341	4.161250E-5	0.002602
4.481250E-5	1.232489E-5	6.801129E-5	1.412585E-5	14.767678	99.231302	69.445000	121.117543	8.201529	0.699830	4.481250E-5	0.002687
4.801250E-5	1.271916E-5	7.485535E-5	1.455280E-5	16.253728	104.669685	68.774393	125.242405	7.705457	0.657061	4.801250E-5	0.002773
5.121250E-5	1.312205E-5	8.238804E-5	1.497804E-5	17.889318	110.001389	67.850040	129.243698	7.224630	0.616811	5.121250E-5	0.002861
5.761250E-5	1.359629E-5	9.067877E-5	1.540079E-5	19.689191	115.201492	66.687392	133.111202	6.760623	0.578876	5.761250E-5	0.002964
6.401250E-5	1.400007E-5	9.980369E-5	1.582026E-5	21.670589	120.245647	65.303257	136.833954	6.314270	0.543082	6.401250E-5	0.003052
7.041250E-5	1.446889E-5	0.000110	1.623564E-5	23.851416	125.112107	63.717725	140.402948	5.886567	0.509285	7.041250E-5	0.003154
7.681250E-5	1.485391E-5	0.000121	1.664624E-5	26.251301	129.784532	61.952751	143.812962	5.478318	0.477351	7.681250E-5	0.003238
8.321250E-5	1.517852E-5	0.000133	1.705127E-5	28.893113	134.247753	60.030682	147.058294	5.089735	0.447163	8.321250E-5	0.003309
8.961250E-5	1.543646E-5	0.000146	1.745004E-5	31.800496	138.491133	57.975767	150.136550	4.721202	0.418624	8.961250E-5	0.003365
9.601250E-5	1.574687E-5	0.000161	1.784174E-5	35.000529	142.506889	55.812074	153.046401	4.372688	0.391645	9.601250E-5	0.003433
0.000102	1.612285E-5	0.000177	1.822588E-5	38.522471	146.290548	53.564026	155.788412	4.044092	0.366148	0.000102	0.003515
0.000115	1.656574E-5	0.000195	1.860170E-5	42.398665	149.841528	51.255514	158.365436	3.735152	0.342065	0.000115	0.003611
0.000128	1.704153E-5	0.000215	1.896863E-5	46.665719	153.159809	48.909828	160.779657	3.445348	0.319339	0.000128	0.003715
0.000141	1.748622E-5	0.000237	1.932623E-5	51.360757	156.250871	46.549895	163.037503	3.174359	0.297918	0.000141	0.003812
0.000154	1.780518E-5	0.000260	1.967400E-5	56.529060	159.120960	44.196363	165.144780	2.921414	0.277753	0.000154	0.003882
0.000166	1.808287E-5	0.000287	2.001146E-5	62.217655	161.778456	41.869455	167.108707	2.685873	0.258807	0.000166	0.003942
0.000179	1.834531E-5	0.000315	2.033831E-5	68.478586	164.233944	39.587702	168.937783	2.467016	0.241045	0.000179	0.003999
0.000192	1.860270E-5	0.000347	2.065428E-5	75.370024	166.498685	37.368155	170.640532	2.264037	0.224435	0.000192	0.004055
0.000205	1.893253E-5	0.000382	2.095906E-5	82.953500	168.586594	35.226219	172.227542	2.076194	0.208950	0.000205	0.004127
0.000230	1.928380E-5	0.000420	2.125262E-5	91.301543	170.511008	33.175447	173.708417	1.902579	0.194565	0.000230	0.004204
0.000256	1.961168E-5	0.000463	2.153473E-5	100.488302	172.286969	31.228264	175.094272	1.742434	0.181257	0.000256	0.004275
0.000282	1.992133E-5	0.000509	2.180552E-5	110.599877	173.929799	29.395032	176.396267	1.594905	0.169005	0.000282	0.004343
0.000307	2.019765E-5	0.000561	2.206501E-5	121.730658	175.454355	27.685059	177.625148	1.459165	0.157791	0.000307	0.004403
0.000333	2.043407E-5	0.000617	2.231334E-5	133.980203	176.876058	26.106416	178.792296	1.334468	0.147597	0.000333	0.004455
0.000358	2.064005E-5	0.000679	2.255078E-5	147.461254	178.210559	24.665485	179.909392	1.220045	0.138406	0.000358	0.004500
0.000384	2.085773E-5	0.000747	2.277753E-5	162.301617	179.472218	23.367746	180.987096	1.115128	0.130203	0.000384	0.004547
0.000410	2.103640E-5	0.000823	2.299408E-5	178.631909	180.676010	22.217766	182.036946	1.019062	0.122970	0.000410	0.004586
0.000461	2.124477E-5	0.000905	2.320087E-5	196.606784	181.836028	21.218896	183.069885	0.931147	0.116692	0.000461	0.004631
0.000512	2.147092E-5	0.000997	2.339836E-5	216.392460	182.965577	20.373999	184.096448	0.850753	0.111354	0.000512	0.004681
0.000563	2.170913E-5	0.001097	2.358719E-5	238.167771	184.077589	19.685280	185.127169	0.777297	0.106940	0.000563	0.004733
0.000614	2.192979E-5	0.001207	2.376806E-5	262.132924	185.184537	19.154285	186.172499	0.710222	0.103433	0.000614	0.004781
0.000666	2.214043E-5	0.001329	2.394166E-5	288.512721	186.297752	18.782190	187.242151	0.648991	0.100818	0.000666	0.004827
0.000717	2.227378E-5	0.001462	2.410881E-5	317.543292	187.428435	18.569890	188.346115	0.593135	0.099077	0.000717	0.004856
0.000768	2.243039E-5	0.001610	2.427040E-5	349.497802	188.586700	18.517990	189.493693	0.542189	0.098194	0.000768	0.004890
0.000819	2.260847E-5	0.001772	2.442734E-5	384.664974	189.782420	18.627025	190.694344	0.495741	0.098149	0.000819	0.004929
0.000922	2.280871E-5	0.001950	2.458067E-5	423.374931	191.024413	18.897425	191.956868	0.453397	0.098927	0.000922	0.004972
0.001024	2.303928E-5	0.002146	2.473144E-5	465.975611	192.321413	19.329701	193.290360	0.414808	0.100507	0.001024	0.005023
0.001126	2.326562E-5	0.002362	2.488073E-5	512.868359	193.681171	19.924413	194.703309	0.379636	0.102872	0.001126	0.005072
0.001229	2.343979E-5	0.002600	2.502977E-5	564.477334	195.111104	20.682228	196.204223	0.347586	0.106002	0.001229	0.005110
0.001331	2.361733E-5	0.002861	2.517975E-5	621.275277	196.618397	21.604118	197.801749	0.318380	0.109878	0.001331	0.005149
0.001434	2.375935E-5	0.003149	2.533199E-5	683.793446	198.209419	22.691227	199.504049	0.291761	0.114481	0.001434	0.005180
0.001536	2.389619E-5	0.003466	2.548783E-5	752.596055	199.890715	23.945099	201.319809	0.267500	0.119791	0.001536	0.005209
0.001638	2.407418E-5	0.003815	2.564869E-5	828.331831	201.668128	25.367656	203.257354	0.245382	0.125789	0.001638	0.005248
0.001843	2.430389E-5	0.004199	2.581602E-5	911.694688	203.546947	26.960879	205.324739	0.225212	0.132455	0.001843	0.005298
0.002048	2.454704E-5	0.004621	2.599136E-5	1003.430079	205.532960	28.727389	207.530866	0.206821	0.139770	0.002048	0.005351
0.002253	2.480790E-5	0.005086	2.617633E-5	1104.399365	207.631671	30.670547	209.884715	0.190044	0.147716	0.002253	0.005408
0.002458	2.503915E-5	0.005598	2.637256E-5	1215.545724	209.847780	32.793758	212.394730	0.174732	0.156274	0.002458	0.005459
0.002662	2.526093E-5	0.006161	2.658179E-5	1337.863492	212.186239	35.100773	215.069905	0.160756	0.165424	0.002662	0.005507
0.002867	2.545151E-5	0.006781	2.680590E-5	1472.464655	214.653026	37.596729	217.920709	0.147997	0.175151	0.002867	0.005549
0.003072	2.564779E-5	0.007464	2.704673E-5	1620.646784	217.252539	40.286912	220.956333	0.136338	0.185438	0.003072	0.005591
0.003277	2.586060E-5	0.008215	2.730634E-5	1783.730584	219.990080	43.176981	224.187170	0.125684	0.196268	0.003277	0.005638
0.003686	2.608401E-5	0.009042	2.758686E-5	1963.225250	222.870892	46.273578	227.623985	0.115944	0.207625	0.003686	0.005686
0.004096	2.632029E-5	0.009951	2.789045E-5	2160.782927	225.899958	49.583725	231.277619	0.107034	0.219494	0.004096	0.005738
0.004506	2.654709E-5	0.010953	2.821949E-5	2378.189616	229.083983	53.116081	235.161199	0.098882	0.231863	0.004506	0.005787
0.004915	2.672259E-5	0.012055	2.857657E-5	2617.535825	232.427239	56.879105	239.285717	0.091416	0.244718	0.004915	0.005826
0.005325	2.689096E-5	0.013268	2.896424E-5	2880.911847	235.937041	60.882758	243.665750	0.084579	0.258047	0.005325	0.005862
0.005734	2.701628E-5	0.014603	2.938549E-5	3170.842792	239.618548	65.137600	248.314228	0.078312	0.271839	0.005734	0.005890
0.006144	2.711382E-5	0.016073	2.984327E-5	3489.910426	243.478675	69.655051	253.246305	0.072565	0.286083	0.006144	0.005911
0.006554	2.722186E-5	0.017690	3.034091E-5	3841.069869	247.525020	74.448559	258.478671	0.067293	0.300772	0.006554	0.005934
0.007373	2.733765E-5	0.019470	3.088191E-5	4227.621384	251.763828	79.531697	264.027112	0.062453	0.315898	0.007373	0.005960
0.008192	2.748165E-5	0.021429	3.147001E-5	4653.031408	256.202634	84.919076	269.909317	0.058007	0.331453	0.008192	0.005991
0.009011	2.768846E-5	0.023586	3.210962E-5	5121.184507	260.850800	90.628131	276.145972	0.053922	0.347433	0.009011	0.006036
0.009830	2.791492E-5	0.025959	3.280492E-5	5636.518119	265.716530	96.677315	282.757454	0.050165	0.363836	0.009830	0.006086
0.010650	2.819041E-5	0.028571	3.356094E-5	6203.764232	270.807279	103.084952	289.763852	0.046708	0.380658	0.010650	0.006146
0.011469	2.846031E-5	0.031446	3.438302E-5	6827.963432	276.134876	109.873503	297.191279	0.043526	0.397898	0.011469	0.006204
0.012288	2.874771E-5	0.034610	3.527692E-5	7515.113001	281.707360	117.065712	305.062973	0.040593	0.415558	0.012288	0.006267
0.013107	2.902447E-5	0.038093	3.624914E-5	8271.338365	287.536092	124.686724	313.406738	0.037891	0.433639	0.013107	0.006327
0.014746	2.926273E-5	0.041926	3.730643E-5	9103.676680	293.631171	132.763551	322.250562	0.035398	0.452144	0.014746	0.006379
0.016384	2.953242E-5	0.046145	3.845682E-5	10019.669530	300.005688	141.326979	331.627393	0.033098	0.471081	0.016384	0.006438
0.018022	2.991742E-5	0.050789	3.970860E-5	11027.939586	306.670925	150.409535	341.570029	0.030973	0.490459	0.018022	0.006522
0.019661	3.046277E-5	0.055899	4.107085E-5	12137.684288	313.639480	160.046316	352.114394	0.029010	0.510288	0.019661	0.006641
0.021299	3.125014E-5	0.061524	4.255437E-5	13359.098112	320.924645	170.275968	363.299509	0.027195	0.530579	0.021299	0.006813
0.022938	3.201067E-5	0.067715	4.417037E-5	14703.440249	328.539475	181.140023	375.166489	0.025516	0.551349	0.022938	0.006978
0.024576	3.263541E-5	0.074530	4.593160E-5	16182.981850	336.499300	192.685162	387.761976	0.023961	0.572617	0.024576	0.007115
0.026214	3.317547E-5	0.082030	4.785181E-5	17811.530486	344.816162	204.959484	401.131619	0.022521	0.594402	0.026214	0.007232
0.029491	3.373231E-5	0.090285	4.994697E-5	19603.644718	353.508360	218.019735	415.332115	0.021186	0.616731	0.029491	0.007354
0.032768	3.441612E-5	0.099370	5.223373E-5	21576.371678	362.588169	231.924037	430.417169	0.019949	0.639635	0.032768	0.007503
0.036045	3.536853E-5	0.109368	5.473150E-5	23747.400452	372.073750	246.739223	446.451699	0.018800	0.663146	0.036045	0.007710
0.039322	3.642238E-5	0.120374	5.746231E-5	26137.199754	381.979437	262.536609	463.501630	0.017733	0.687306	0.039322	0.007940
0.042598	3.746258E-5	0.132487	6.044916E-5	28767.654482	392.317273	279.390320	481.634502	0.016742	0.712154	0.042598	0.008167
0.045875	3.821921E-5	0.145820	6.371890E-5	31662.191629	403.106295	297.388486	500.933725	0.015821	0.737742	0.045875	0.008332
0.049152	3.905584E-5	0.160492	6.730057E-5	34848.220320	414.359163	316.624454	521.483040	0.014964	0.764130	0.049152	0.008514
0.052429	4.011591E-5	0.176641	7.122779E-5	38354.804765	426.091378	337.202716	543.377893	0.014167	0.791386	0.052429	0.008745
0.058982	4.158279E-5	0.194418	7.553765E-5	42214.697467	438.310482	359.231299	566.712630	0.013425	0.819582	0.058982	0.009065
0.065536	4.349209E-5	0.213982	8.027017E-5	46462.234554	451.034179	382.840588	591.606919	0.012733	0.848806	0.065536	0.009481
0.072090	4.546614E-5	0.235515	8.547163E-5	51138.291480	464.263045	408.160520	618.170838	0.012088	0.879158	0.072090	0.009912
0.078643	4.713653E-5	0.259213	9.119277E-5	56284.054096	478.006964	435.343383	646.540423	0.011487	0.910747	0.078643	0.010276
0.085197	4.883872E-5	0.285298	9.749159E-5	61947.835391	492.264829	464.552402	676.855668	0.010926	0.943704	0.085197	0.010647
0.091750	5.013327E-5	0.314006	0.000104	68181.125257	507.035844	495.971614	709.276525	0.010403	0.978179	0.091750	0.010929
0.098304	5.160510E-5	0.345601	0.000112	75041.964027	522.309049	529.800137	743.972397	0.009914	1.014342	0.098304	0.011250
0.104858	5.367836E-5	0.380381	0.000121	82593.040744	538.071427	566.263689	781.137265	0.009458	1.052395	0.104858	0.011702
0.117965	5.638672E-5	0.418655	0.000130	90905.127543	554.290787	605.598501	820.967613	0.009031	1.092565	0.117965	0.012293
0.131072	5.970659E-5	0.460786	0.000140	100052.467540	570.933401	648.074822	863.693188	0.008632	1.135115	0.131072	0.013016
0.144179	6.336789E-5	0.507148	0.000152	110119.752765	587.954131	694.000213	909.574821	0.008260	1.180365	0.144179	0.013814
0.157286	6.671493E-5	0.558181	0.000164	121202.164589	605.274586	743.688106	958.868773	0.007911	1.228679	0.157286	0.014544
0.170394	6.997952E-5	0.614354	0.000178	133397.072856	622.821214	797.518348	1011.900084	0.007586	1.280493	0.170394	0.015256
0.183501	7.315745E-5	0.676172	0.000193	146821.720064	640.471039	855.879648	1068.986962	0.007281	1.336328	0.183501	0.015949
0.399815	0.000126	0.744216	0.000211	161595.229835	658.088461	919.217538	1130.504889	0.006996	1.396799	0.399815	0.027401
0.599723	0.000170	0.819101	0.000229	177854.333217	675.504805	988.040001	1196.883363	0.006730	1.462669	0.599723	0.037141
0.799631	0.000221	0.901538	0.000250	195753.155614	692.490206	1062.872755	1268.558701	0.006480	1.534856	0.799631	0.048163
0.999538	0.000270	0.992243	0.000274	215450.903584	708.784890	1144.326222	1346.052942	0.006248	1.614490	0.999538	0.058790
1.199446	0.000324	1.092090	0.000299	237132.318772	724.054851	1233.059906	1429.927326	0.006030	1.702992	1.199446	0.070554
1.399354	0.000378	1.201996	0.000328	260995.461683	737.893963	1329.790886	1520.799560	0.005827	1.802144	1.399354	0.082396
1.599261	0.000434	1.322947	0.000359	287255.646994	749.828694	1435.363683	1619.417170	0.005638	1.914255	1.599261	0.094578
1.799169	0.000493	1.456082	0.000394	316165.045659	759.249538	1550.643214	1726.544015	0.005461	2.042337	1.799169	0.107513
1.999077	0.000554	1.602606	0.000432	347979.929898	765.450748	1676.617090	1843.084294	0.005297	2.190366	1.999077	0.120861
2.198984	0.000607	1.763852	0.000474	382992.312531	767.587397	1814.436491	1970.119335	0.005144	2.363817	2.198984	0.132354
2.398892	0.000652	1.941349	0.000520	421536.492218	764.617700	1965.311655	2108.812492	0.005003	2.570319	2.398892	0.142240
2.598800	0.000704	2.136707	0.000572	463953.796139	755.335683	2130.679080	2260.602871	0.004872	2.820837	2.598800	0.153571
2.798707	0.000756	2.351711	0.000627	510632.932454	738.310564	2312.326640	2427.335366	0.004754	3.131916	2.798707	0.164837
2.998615	0.000803	2.588361	0.000689	562021.201303	711.818872	2512.367063	2611.259153	0.004646	3.529503	2.998615	0.174959
3.198523	0.000833	2.848834	0.000755	618575.246047	673.863197	2733.718479	2815.547607	0.004552	4.056786	3.198523	0.181570
3.398430	0.000870	3.135472	0.000828	680821.452619	622.034231	2980.552327	3044.769081	0.004472	4.791621	3.398430	0.189762
3.598338	0.000899	3.450997	0.000907	749331.976480	553.376505	3259.238353	3305.882665	0.004412	5.889730	3.598338	0.196078
