MicroRheology Analysis v9.2.8
10/03/18 5:19:48 PM

Correlation Mode:	Cross
Geometry:	Transmission
Multi-Tau Duration (s):	120
Echo Duration (s):	60
Wavelength (nm):	685.0
Temperature (°C):	29.98
Cuvette Thickness (mm):	5.00
Absorption Length (mm):	83.711
Solvent:	Water
Solvent Refractive Index:	1.329
Particle Radius (nm):	300.0
Mean Count Rate (kHz):	582.5
l* (microns):	801.74



Lag Time (s)	Mean Square Displacement (micron^2)	Fit Lag Time (s)	Mean Square Displacement Fit (micron^2)	Frequency(rad/s)	G1 (Pa)	G2 (Pa)	G* (Pa)	Complex Viscosity (Pa s)	Loss Tangent (-)	Time (s)	Creep Compliance (1/Pa)

1.012500E-6	1.432514E-6	1.012519E-6	1.240629E-6	0.079401	-0.486400	4.766252	4.791006	60.339696	-9.799047	1.012500E-6	0.000323
1.112500E-6	1.454297E-6	1.097787E-6	1.305204E-6	0.086089	-0.449220	5.223555	5.242835	60.900379	-11.628045	1.112500E-6	0.000328
1.212500E-6	1.460231E-6	1.190276E-6	1.373644E-6	0.093341	-0.396467	5.719258	5.732983	61.420046	-14.425557	1.212500E-6	0.000329
1.312500E-6	1.450315E-6	1.290540E-6	1.446099E-6	0.101204	-0.325571	6.255377	6.263844	61.893437	-19.213568	1.312500E-6	0.000327
1.412500E-6	1.373336E-6	1.399240E-6	1.522766E-6	0.109728	-0.233717	6.834052	6.838047	62.318297	-29.240697	1.412500E-6	0.000309
1.512500E-6	1.312603E-6	1.517095E-6	1.603851E-6	0.118970	-0.117801	7.457393	7.458323	62.690909	-63.304900	1.512500E-6	0.000296
1.612500E-6	1.399411E-6	1.644894E-6	1.689569E-6	0.128992	0.025516	8.127009	8.127049	63.004160	318.507236	1.612500E-6	0.000315
1.812500E-6	1.668505E-6	1.783454E-6	1.780114E-6	0.139856	0.199851	8.844980	8.847237	63.259541	44.257927	1.812500E-6	0.000376
2.012500E-6	1.929286E-6	1.933678E-6	1.875698E-6	0.151639	0.409071	9.612513	9.621214	63.448340	23.498389	2.012500E-6	0.000434
2.212500E-6	2.291359E-6	2.096549E-6	1.976538E-6	0.164410	0.657300	10.431270	10.451958	63.572382	15.869884	2.212500E-6	0.000516
2.412500E-6	2.503300E-6	2.273132E-6	2.082853E-6	0.178261	0.948863	11.301955	11.341716	63.624291	11.911051	2.412500E-6	0.000564
2.612500E-6	2.503144E-6	2.464595E-6	2.194873E-6	0.193274	1.288384	12.225858	12.293556	63.607025	9.489294	2.612500E-6	0.000564
2.812500E-6	2.389421E-6	2.672210E-6	2.312831E-6	0.209556	1.680607	13.203001	13.309533	63.513074	7.856090	2.812500E-6	0.000538
3.012500E-6	2.332333E-6	2.897323E-6	2.436945E-6	0.227206	2.130450	14.233692	14.392249	63.344513	6.681074	3.012500E-6	0.000525
3.212500E-6	2.433844E-6	3.141378E-6	2.567424E-6	0.246343	2.643083	15.317812	15.544171	63.099667	5.795434	3.212500E-6	0.000548
3.612500E-6	2.727840E-6	3.405934E-6	2.704474E-6	0.267096	3.223526	16.454063	16.766851	62.774512	5.104368	3.612500E-6	0.000614
4.012500E-6	3.034593E-6	3.692857E-6	2.848385E-6	0.289591	3.877092	17.641792	18.062798	62.373532	4.550265	4.012500E-6	0.000683
4.412500E-6	3.225193E-6	4.003918E-6	2.999324E-6	0.313984	4.609073	18.879166	19.433643	61.893695	4.096088	4.412500E-6	0.000726
4.812500E-6	3.372690E-6	4.341136E-6	3.157498E-6	0.340435	5.424595	20.163865	20.880797	61.335718	3.717119	4.812500E-6	0.000760
5.212500E-6	3.548748E-6	4.706818E-6	3.323166E-6	0.369113	6.328499	21.492702	22.405047	60.699667	3.396177	5.212500E-6	0.000799
5.612500E-6	3.704088E-6	5.103308E-6	3.496507E-6	0.400198	7.326014	22.863247	24.008301	59.991085	3.120830	5.612500E-6	0.000834
6.012500E-6	3.956704E-6	5.533193E-6	3.677715E-6	0.433912	8.421712	24.271026	25.690619	59.206913	2.881959	6.012500E-6	0.000891
6.412500E-6	4.128158E-6	5.999303E-6	3.866984E-6	0.470465	9.619688	25.711402	27.452041	58.350863	2.672790	6.412500E-6	0.000930
7.212500E-6	4.333013E-6	6.504589E-6	4.064452E-6	0.510088	10.924252	27.180050	29.293248	57.427838	2.488047	7.212500E-6	0.000976
8.012500E-6	4.568871E-6	7.052477E-6	4.270331E-6	0.553058	12.338731	28.670839	31.213158	56.437454	2.323646	8.012500E-6	0.001029
8.812500E-6	4.919267E-6	7.646508E-6	4.484756E-6	0.599638	13.866434	30.178389	33.211642	55.386129	2.176363	8.812500E-6	0.001108
9.612500E-6	5.184131E-6	8.290581E-6	4.707868E-6	0.650152	15.509802	31.695891	35.287157	54.275227	2.043604	9.612500E-6	0.001167
1.041250E-5	5.477737E-6	8.988992E-6	4.939814E-6	0.704921	17.270440	33.216251	37.437781	53.109176	1.923301	1.041250E-5	0.001234
1.121250E-5	5.684178E-6	9.746146E-6	5.180642E-6	0.764294	19.149615	34.732439	39.661696	51.893222	1.813741	1.121250E-5	0.001280
1.201250E-5	5.923112E-6	1.056703E-5	5.430449E-6	0.828665	21.148154	36.237223	41.956891	50.631889	1.713493	1.201250E-5	0.001334
1.281250E-5	6.113261E-6	1.145729E-5	5.689377E-6	0.898469	23.265797	37.722636	44.320363	49.328772	1.621377	1.281250E-5	0.001377
1.441250E-5	6.437274E-6	1.242234E-5	5.957349E-6	0.974158	25.501016	39.180290	46.748230	47.988347	1.536421	1.441250E-5	0.001450
1.601250E-5	6.774946E-6	1.346864E-5	6.234425E-6	1.056207	27.852110	40.602530	49.237237	46.617027	1.457790	1.601250E-5	0.001526
1.761250E-5	7.116445E-6	1.460307E-5	6.520609E-6	1.145167	30.316997	41.981687	51.783998	45.219622	1.384757	1.761250E-5	0.001603
1.921250E-5	7.451757E-6	1.583319E-5	6.815903E-6	1.241645	32.891411	43.308882	54.382940	43.799108	1.316723	1.921250E-5	0.001678
2.081250E-5	7.768002E-6	1.716694E-5	7.120215E-6	1.346229	35.571079	44.576735	57.029703	42.362551	1.253174	2.081250E-5	0.001749
2.241250E-5	8.041533E-6	1.861292E-5	7.433432E-6	1.459619	38.351024	45.777652	59.719297	40.914317	1.193649	2.241250E-5	0.001811
2.401250E-5	8.394300E-6	2.018073E-5	7.755472E-6	1.582559	41.225489	46.904425	62.446505	39.459195	1.137753	2.401250E-5	0.001890
2.561250E-5	8.805490E-6	2.188045E-5	8.086151E-6	1.715863	44.187882	47.950136	65.205709	38.001695	1.085142	2.561250E-5	0.001983
2.881250E-5	9.260664E-6	2.372361E-5	8.425372E-6	1.860406	47.230490	48.908131	67.990620	36.546126	1.035520	2.881250E-5	0.002085
3.201250E-5	9.742025E-6	2.572179E-5	8.772843E-6	2.017109	50.345824	49.772966	70.795835	35.097674	0.988622	3.201250E-5	0.002194
3.521250E-5	1.019390E-5	2.788890E-5	9.128463E-6	2.187035	53.524857	50.538898	73.614473	33.659483	0.944214	3.521250E-5	0.002296
3.841250E-5	1.059488E-5	3.023756E-5	9.491718E-6	2.371253	56.758391	51.201504	76.440232	32.236217	0.902096	3.841250E-5	0.002386
4.161250E-5	1.099717E-5	3.278488E-5	9.862579E-6	2.570961	60.037824	51.757320	79.267651	30.831912	0.862079	4.161250E-5	0.002477
4.481250E-5	1.137297E-5	3.554638E-5	1.024055E-5	2.787528	63.353030	52.202747	82.089787	29.448958	0.823998	4.481250E-5	0.002561
4.801250E-5	1.177406E-5	3.854028E-5	1.062529E-5	3.022327	66.694659	52.535878	84.901096	28.091304	0.787707	4.801250E-5	0.002651
5.121250E-5	1.219826E-5	4.178700E-5	1.101652E-5	3.276961	70.051471	52.754489	87.694040	26.760784	0.753082	5.121250E-5	0.002747
5.761250E-5	1.270009E-5	4.530672E-5	1.141370E-5	3.552978	73.413491	52.858402	90.462983	25.461171	0.720009	5.761250E-5	0.002860
6.401250E-5	1.324922E-5	4.912324E-5	1.181646E-5	3.852217	76.771536	52.847851	93.202811	24.194592	0.688378	6.401250E-5	0.002984
7.041250E-5	1.378906E-5	5.326129E-5	1.222432E-5	4.176725	80.115053	52.723260	95.907058	22.962265	0.658094	7.041250E-5	0.003105
7.681250E-5	1.428278E-5	5.774684E-5	1.263667E-5	4.528545	83.434162	52.486531	98.570256	21.766431	0.629077	7.681250E-5	0.003216
8.321250E-5	1.473489E-5	6.261214E-5	1.305327E-5	4.909974	86.720101	52.140241	101.187848	20.608634	0.601247	8.321250E-5	0.003318
8.961250E-5	1.508836E-5	6.788510E-5	1.347324E-5	5.323600	89.963061	51.687150	103.754102	19.489463	0.574537	8.961250E-5	0.003398
9.601250E-5	1.548981E-5	7.360312E-5	1.389626E-5	5.772004	93.154808	51.131452	106.264969	18.410413	0.548887	9.601250E-5	0.003488
0.000102	1.593807E-5	7.980415E-5	1.432179E-5	6.258193	96.287211	50.477409	108.716125	17.371808	0.524238	0.000102	0.003589
0.000115	1.643716E-5	8.652545E-5	1.474901E-5	6.785324	99.352643	49.730073	111.103680	16.374116	0.500541	0.000115	0.003702
0.000128	1.698787E-5	9.381387E-5	1.517752E-5	7.356820	102.344677	48.895040	113.424679	15.417623	0.477749	0.000128	0.003826
0.000141	1.752874E-5	0.000102	1.560666E-5	7.976520	105.257220	47.978097	115.676187	14.502087	0.455818	0.000141	0.003947
0.000154	1.796878E-5	0.000110	1.603584E-5	8.648509	108.084039	46.985542	117.854998	13.627204	0.434713	0.000154	0.004046
0.000166	1.837072E-5	0.000120	1.646434E-5	9.377001	110.820444	45.924322	119.959218	12.792919	0.414403	0.000166	0.004137
0.000179	1.870422E-5	0.000130	1.689159E-5	10.166797	113.462944	44.801264	121.987675	11.998634	0.394854	0.000179	0.004212
0.000192	1.905063E-5	0.000141	1.731705E-5	11.023240	116.007301	43.623297	123.938235	11.243358	0.376039	0.000192	0.004290
0.000205	1.943826E-5	0.000152	1.773999E-5	11.951583	118.451887	42.397953	125.811112	10.526732	0.357934	0.000205	0.004377
0.000230	1.987710E-5	0.000165	1.815997E-5	12.958304	120.794533	41.132095	127.605519	9.847393	0.340513	0.000230	0.004476
0.000256	2.034960E-5	0.000179	1.857617E-5	14.049838	123.034311	39.833123	129.321767	9.204502	0.323756	0.000256	0.004583
0.000282	2.081280E-5	0.000194	1.898828E-5	15.233487	125.170087	38.508231	130.959667	8.596828	0.307647	0.000282	0.004687
0.000307	2.119539E-5	0.000211	1.939545E-5	16.516613	127.202199	37.164805	132.520271	8.023453	0.292171	0.000307	0.004773
0.000333	2.154039E-5	0.000228	1.979734E-5	17.907689	129.131930	35.809632	134.005168	7.483108	0.277310	0.000333	0.004851
0.000358	2.182832E-5	0.000248	2.019332E-5	19.416125	130.960375	34.449350	135.415573	6.974387	0.263052	0.000358	0.004916
0.000384	2.211931E-5	0.000268	2.058296E-5	21.051543	132.690048	33.090523	136.753908	6.496147	0.249382	0.000384	0.004981
0.000410	2.244721E-5	0.000291	2.096574E-5	22.825208	134.322483	31.739406	138.021445	6.046887	0.236293	0.000410	0.005055
0.000461	2.281776E-5	0.000316	2.134126E-5	24.747757	135.861019	30.402351	139.221117	5.625605	0.223775	0.000461	0.005138
0.000512	2.319560E-5	0.000342	2.170899E-5	26.832203	137.309100	29.084819	140.355675	5.230867	0.211820	0.000512	0.005224
0.000563	2.355072E-5	0.000371	2.206875E-5	29.092256	138.670671	27.792099	141.428271	4.861372	0.200418	0.000563	0.005304
0.000614	2.384615E-5	0.000402	2.241999E-5	31.543071	139.949406	26.529275	142.441703	4.515784	0.189563	0.000614	0.005370
0.000666	2.410656E-5	0.000436	2.276251E-5	34.200041	141.149791	25.301222	143.399496	4.192963	0.179251	0.000666	0.005429
0.000717	2.431752E-5	0.000473	2.309600E-5	37.080790	142.276390	24.112262	144.305136	3.891641	0.169475	0.000717	0.005476
0.000768	2.454336E-5	0.000513	2.342020E-5	40.204068	143.333929	22.966491	145.162237	3.610636	0.160231	0.000768	0.005527
0.000819	2.479221E-5	0.000556	2.373497E-5	43.590091	144.327700	21.867536	145.974910	3.348810	0.151513	0.000819	0.005583
0.000922	2.507078E-5	0.000603	2.404012E-5	47.262034	145.262549	20.818725	146.746814	3.104962	0.143318	0.000922	0.005646
0.001024	2.537586E-5	0.000653	2.433552E-5	51.243275	146.143599	19.823302	147.481914	2.878074	0.135643	0.001024	0.005715
0.001126	2.566685E-5	0.000708	2.462110E-5	55.559715	146.976124	18.884070	148.184308	2.667118	0.128484	0.001126	0.005780
0.001229	2.589712E-5	0.000768	2.489679E-5	60.239821	147.765304	18.003558	148.858030	2.471090	0.121839	0.001229	0.005832
0.001331	2.610621E-5	0.000833	2.516269E-5	65.313886	148.516519	17.184012	149.507346	2.289059	0.115704	0.001331	0.005879
0.001434	2.627616E-5	0.000903	2.541872E-5	70.815942	149.234644	16.427520	150.136080	2.120089	0.110078	0.001434	0.005917
0.001536	2.645187E-5	0.000979	2.566505E-5	76.779741	149.925415	15.735833	150.748952	1.963395	0.104958	0.001536	0.005957
0.001638	2.666280E-5	0.001062	2.590175E-5	83.248514	150.593259	15.110539	151.349457	1.818044	0.100340	0.001638	0.006004
0.001843	2.690162E-5	0.001151	2.612904E-5	90.259239	151.243827	14.553139	151.942387	1.683400	0.096223	0.001843	0.006058
0.002048	2.715737E-5	0.001248	2.634703E-5	97.863653	151.881557	14.064796	152.531393	1.558611	0.092604	0.002048	0.006116
0.002253	2.741013E-5	0.001353	2.655599E-5	106.106975	152.511412	13.646778	153.120754	1.443079	0.089480	0.002253	0.006173
0.002458	2.762483E-5	0.001467	2.675623E-5	115.044803	153.137925	13.300065	153.714397	1.336126	0.086850	0.002458	0.006221
0.002662	2.782065E-5	0.001591	2.694805E-5	124.733602	153.765957	13.025558	154.316670	1.237170	0.084710	0.002662	0.006265
0.002867	2.798440E-5	0.001725	2.713172E-5	135.241383	154.399718	12.824080	154.931372	1.145591	0.083058	0.002867	0.006302
0.003072	2.814493E-5	0.001870	2.730769E-5	146.634016	155.043364	12.696481	155.562352	1.060889	0.081890	0.003072	0.006338
0.003277	2.830779E-5	0.002027	2.747629E-5	158.983462	155.701250	12.643516	156.213757	0.982579	0.081204	0.003277	0.006375
0.003686	2.848707E-5	0.002198	2.763800E-5	172.374433	156.377491	12.665926	156.889596	0.910167	0.080996	0.003686	0.006415
0.004096	2.867286E-5	0.002383	2.779327E-5	186.897380	157.075540	12.764448	157.593326	0.843208	0.081263	0.004096	0.006457
0.004506	2.885438E-5	0.002584	2.794256E-5	202.637831	157.799521	12.939877	158.329180	0.781341	0.082002	0.004506	0.006498
0.004915	2.899786E-5	0.002802	2.808639E-5	219.707832	158.552797	13.193003	159.100738	0.724147	0.083209	0.004915	0.006530
0.005325	2.912705E-5	0.003038	2.822533E-5	238.212898	159.339083	13.524711	159.912042	0.671299	0.084880	0.005325	0.006559
0.005734	2.921594E-5	0.003294	2.835987E-5	258.280462	160.161586	13.935940	160.766738	0.622450	0.087012	0.005734	0.006579
0.006144	2.931395E-5	0.003571	2.849064E-5	280.037637	161.023502	14.427646	161.668566	0.577310	0.089600	0.006144	0.006601
0.006554	2.944788E-5	0.003872	2.861825E-5	303.624824	161.927980	15.000901	162.621333	0.535600	0.092639	0.006554	0.006632
0.007373	2.963283E-5	0.004198	2.874330E-5	329.196013	162.878397	15.657065	163.629203	0.497057	0.096127	0.007373	0.006673
0.008192	2.985813E-5	0.004551	2.886640E-5	356.929867	163.877290	16.397421	164.695603	0.461423	0.100059	0.008192	0.006724
0.009011	3.008539E-5	0.004935	2.898827E-5	386.993671	164.927702	17.223363	165.824580	0.428494	0.104430	0.009011	0.006775
0.009830	3.026062E-5	0.005351	2.910952E-5	419.589823	166.032523	18.136635	167.020167	0.398056	0.109235	0.009830	0.006815
0.010650	3.042022E-5	0.005801	2.923092E-5	454.935208	167.194403	19.139029	168.286276	0.369913	0.114472	0.010650	0.006850
0.011469	3.054651E-5	0.006290	2.935311E-5	493.258354	168.415863	20.232384	169.626803	0.343890	0.120133	0.011469	0.006879
0.012288	3.073642E-5	0.006820	2.947683E-5	534.803707	169.699829	21.418946	171.046202	0.319830	0.126217	0.012288	0.006922
0.013107	3.098532E-5	0.007394	2.960287E-5	579.855300	171.048551	22.701004	172.548377	0.297571	0.132717	0.013107	0.006978
0.014746	3.123737E-5	0.008017	2.973197E-5	628.694022	172.464983	24.081192	174.138089	0.276984	0.139629	0.014746	0.007035
0.016384	3.149816E-5	0.008692	2.986485E-5	681.656499	173.951321	25.562285	175.819488	0.257930	0.146951	0.016384	0.007093
0.018022	3.178088E-5	0.009424	3.000239E-5	739.075478	175.510000	27.147060	177.597080	0.240296	0.154675	0.018022	0.007157
0.019661	3.203022E-5	0.010218	3.014537E-5	801.321662	177.143773	28.838866	179.475894	0.223975	0.162799	0.019661	0.007213
0.021299	3.231848E-5	0.011079	3.029465E-5	868.812456	178.855481	30.641564	181.461259	0.208861	0.171320	0.021299	0.007278
0.022938	3.256888E-5	0.012012	3.045100E-5	942.006362	180.646966	32.558669	183.557602	0.194858	0.180234	0.022938	0.007334
0.024576	3.278319E-5	0.013024	3.061542E-5	1021.349735	182.521295	34.594235	185.770784	0.181888	0.189535	0.024576	0.007383
0.026214	3.302241E-5	0.014121	3.078869E-5	1107.385614	184.480633	36.752615	188.105977	0.169865	0.199222	0.026214	0.007436
0.029491	3.334845E-5	0.015311	3.097185E-5	1200.656257	186.528230	39.038726	190.569679	0.158721	0.209291	0.029491	0.007510
0.032768	3.377972E-5	0.016600	3.116578E-5	1301.804364	188.665838	41.457282	193.167038	0.148384	0.219739	0.032768	0.007607
0.036045	3.419949E-5	0.017999	3.137150E-5	1411.443206	190.897077	44.013803	195.905357	0.138798	0.230563	0.036045	0.007702
0.039322	3.463031E-5	0.019515	3.159002E-5	1530.335483	193.224414	46.714269	198.791089	0.129900	0.241762	0.039322	0.007799
0.042598	3.508388E-5	0.021159	3.182240E-5	1659.244285	195.650714	49.564668	201.831261	0.121640	0.253332	0.042598	0.007901
0.045875	3.538351E-5	0.022941	3.206973E-5	1799.011443	198.178951	52.571554	205.033326	0.113970	0.265273	0.045875	0.007968
0.049152	3.571850E-5	0.024873	3.233310E-5	1950.551922	200.811973	55.741765	208.404877	0.106844	0.277582	0.049152	0.008044
0.052429	3.615634E-5	0.026968	3.261377E-5	2114.842968	203.553320	59.082912	211.954581	0.100222	0.290258	0.052429	0.008142
0.058982	3.666139E-5	0.029240	3.291295E-5	2292.981289	206.406227	62.603090	215.691162	0.094066	0.303300	0.058982	0.008256
0.065536	3.734759E-5	0.031703	3.323194E-5	2486.132071	209.373771	66.310478	219.623440	0.088339	0.316709	0.065536	0.008410
0.072090	3.813609E-5	0.034373	3.357213E-5	2695.535064	212.460520	70.214687	223.762318	0.083012	0.330483	0.072090	0.008588
0.078643	3.882686E-5	0.037269	3.393485E-5	2922.631277	215.668268	74.324294	228.115985	0.078052	0.344623	0.078643	0.008744
0.085197	3.960536E-5	0.040408	3.432165E-5	3168.773986	219.002965	78.650156	232.697541	0.073435	0.359128	0.085197	0.008919
0.091750	4.013838E-5	0.043811	3.473411E-5	3435.711569	222.467381	83.203055	237.517334	0.069132	0.374001	0.091750	0.009039
0.098304	4.067548E-5	0.047502	3.517403E-5	3725.111044	226.066278	87.994344	242.588059	0.065122	0.389241	0.098304	0.009160
0.104858	4.137788E-5	0.051504	3.564293E-5	4038.895788	229.803607	93.036016	247.922161	0.061384	0.404850	0.104858	0.009318
0.117965	4.232504E-5	0.055842	3.614282E-5	4379.079818	233.684963	98.341589	253.534475	0.057897	0.420830	0.117965	0.009531
0.131072	4.354232E-5	0.060545	3.667560E-5	4747.962319	237.713901	103.924118	259.438087	0.054642	0.437181	0.131072	0.009806
0.144179	4.497509E-5	0.065645	3.724350E-5	5147.845102	241.897980	109.799683	265.651281	0.051604	0.453909	0.144179	0.010128
0.157286	4.493435E-5	0.071175	3.784884E-5	5581.548981	246.239352	115.982062	272.186806	0.048765	0.471014	0.157286	0.010119
0.170394	4.695487E-5	0.077171	3.849383E-5	6051.629869	250.747189	122.489283	279.065902	0.046114	0.488497	0.170394	0.010574
0.183501	5.221946E-5	0.083671	3.918111E-5	6561.450780	255.424495	129.337616	286.303845	0.043634	0.506363	0.183501	0.011760
0.399815	6.233266E-5	0.090717	3.991330E-5	7114.083538	260.280116	136.546558	293.922951	0.041316	0.524614	0.399815	0.014037
0.599722	7.588978E-5	0.098359	4.069368E-5	7713.348512	265.318924	144.135082	301.942136	0.039145	0.543252	0.599722	0.017090
0.799629	9.146919E-5	0.106644	4.152509E-5	8362.989738	270.549731	152.124868	310.385458	0.037114	0.562281	0.799629	0.020598
0.999537	0.000106	0.115627	4.241111E-5	9067.400977	275.980503	160.539229	319.277437	0.035212	0.581705	0.999537	0.023883
1.199440	0.000120	0.125368	4.335547E-5	9831.261253	281.617909	169.400668	328.641496	0.033428	0.601527	1.199440	0.027067
1.399350	0.000134	0.135928	4.436185E-5	10659.404688	287.471249	178.734256	338.505027	0.031756	0.621747	1.399350	0.030234
1.599260	0.000149	0.147377	4.543447E-5	11557.293005	293.548804	188.565895	348.895396	0.030188	0.642366	1.599260	0.033524
1.799170	0.000163	0.159791	4.657807E-5	12530.676780	299.863903	198.927183	359.847724	0.028717	0.663392	1.799170	0.036656
1.999070	0.000177	0.173250	4.779756E-5	13586.380691	306.422523	209.845111	371.388925	0.027335	0.684823	1.999070	0.039932
2.198980	0.000192	0.187843	4.909820E-5	14730.772233	313.236861	221.350615	383.553681	0.026038	0.706656	2.198980	0.043159
2.398890	0.000206	0.203667	5.048600E-5	15971.342363	320.323830	233.483225	396.385888	0.024819	0.728897	2.398890	0.046296
2.598790	0.000220	0.220821	5.196678E-5	17316.963970	327.688427	246.272570	409.914483	0.023671	0.751545	2.598790	0.049611
2.798700	0.000235	0.239422	5.354763E-5	18775.360819	335.351438	259.761328	424.189268	0.022593	0.774594	2.798700	0.052810
2.998610	0.000249	0.259591	5.523591E-5	20356.962822	343.324503	273.989217	439.251415	0.021577	0.798047	2.998610	0.056095
3.198520	0.000264	0.281454	5.703913E-5	22071.782023	351.623232	288.997752	455.146787	0.020621	0.821896	3.198520	0.059352
3.398430	0.000278	0.305161	5.896644E-5	23930.886758	360.267440	304.835392	471.929279	0.019721	0.846136	3.398430	0.062620
3.598330	0.000293	0.330871	6.102762E-5	25946.882616	369.271525	321.546631	489.646500	0.018871	0.870759	3.598330	0.065896
3.798240	0.000308	0.358741	6.323196E-5	28132.257481	378.659264	339.185642	508.359850	0.018070	0.895754	3.798240	0.069254
3.998150	0.000323	0.388960	6.559116E-5	30501.864260	388.452835	357.809100	528.131571	0.017315	0.921113	3.998150	0.072705
4.198050	0.000335	0.421718	6.811683E-5	33071.449893	398.669630	377.467220	549.016371	0.016601	0.946817	4.198050	0.075442
4.397960	0.000353	0.457240	7.082296E-5	35856.560604	409.346029	398.232829	571.098553	0.015927	0.972851	4.397960	0.079466
4.597870	0.000367	0.495759	7.372408E-5	38877.538292	420.498553	420.160493	594.435761	0.015290	0.999196	4.597870	0.082555
4.797780	0.000380	0.537517	7.683522E-5	42152.104860	432.164427	443.324106	619.114169	0.014688	1.025823	4.797780	0.085573
4.997680	0.000397	0.582797	8.017434E-5	45702.892245	444.371511	467.792046	645.209608	0.014117	1.052705	4.997680	0.089463
5.197590	0.000409	0.631888	8.375979E-5	49552.213677	457.159700	493.645326	672.815502	0.013578	1.079809	5.197590	0.092175
5.397500	0.000426	0.685110	8.761218E-5	53726.131121	470.565329	520.963171	702.021620	0.013067	1.107101	5.397500	0.095923
5.597410	0.000441	0.742816	9.175431E-5	58251.508993	484.632919	549.833564	732.929747	0.012582	1.134536	5.597410	0.099367
5.797310	0.000453	0.805383	9.621110E-5	63158.463916	499.407042	580.345191	765.642171	0.012123	1.162068	5.797310	0.102084
5.997220	0.000471	0.873235	0.000101	68478.758876	514.936296	612.589587	800.265825	0.011686	1.189641	5.997220	0.106016
6.197130	0.000485	0.946784	0.000106	74246.544707	531.278266	646.669475	836.921744	0.011272	1.217195	6.197130	0.109247
6.397030	0.000500	1.026528	0.000112	80500.112948	548.493921	682.691879	875.736138	0.010879	1.244666	6.397030	0.112570
6.596940	0.000517	1.113005	0.000118	87280.679468	566.653196	720.773824	916.848270	0.010505	1.271984	6.596940	0.116393
6.796850	0.000529	1.206760	0.000124	94633.961565	585.817625	761.015204	960.378275	0.010148	1.299065	6.796850	0.119213
6.996760	0.000547	1.308396	0.000131	102604.656331	606.075172	803.546811	1006.486260	0.009809	1.325820	6.996760	0.123185
7.196660	0.000562	1.418598	0.000139	111247.180367	627.513483	848.499268	1055.331312	0.009486	1.352161	7.196660	0.126450
7.396570	0.000575	1.538101	0.000147	120618.809211	650.221594	895.994720	1107.065788	0.009178	1.377984	7.396570	0.129534
7.596480	0.000593	1.667672	0.000156	130778.656450	674.307640	946.174127	1161.867580	0.008884	1.403179	7.596480	0.133521
7.796390	0.000607	1.808130	0.000166	141794.156630	699.886323	999.181104	1219.919564	0.008603	1.427633	7.796390	0.136665
7.996290	0.000623	1.960446	0.000176	153737.624786	727.080204	1055.157937	1281.406999	0.008335	1.451226	7.996290	0.140372
8.196200	0.000640	2.125556	0.000187	166686.035277	756.035194	1114.269707	1346.546024	0.008078	1.473833	8.196200	0.144045
8.396110	0.000652	2.304612	0.000200	180727.478108	786.894791	1176.662215	1415.534309	0.007832	1.495323	8.396110	0.146759
8.596020	0.000671	2.498764	0.000213	195951.342415	819.825775	1242.495869	1488.593391	0.007597	1.515561	8.596020	0.151092
8.795920	0.000685	2.709196	0.000228	212457.754152	855.007608	1311.931082	1565.950566	0.007371	1.534409	8.795920	0.154258
8.995830	0.000698	2.937422	0.000244	230354.433578	892.630763	1385.119557	1647.830655	0.007153	1.551727	8.995830	0.157228
9.195740	0.000716	3.184874	0.000261	249755.364177	932.922700	1462.245051	1734.504354	0.006945	1.567381	9.195740	0.161167
9.395650	0.000729	3.453149	0.000280	270793.064420	976.116672	1543.470200	1826.226715	0.006744	1.581235	9.395650	0.164066
9.595550	0.000745	3.743966	0.000300	293605.232909	1022.449222	1628.922323	1923.223946	0.006550	1.593157	9.595550	0.167667
9.795460	0.000759	4.059378	0.000323	318331.637715	1072.223331	1718.797525	2025.815343	0.006364	1.603022	9.795460	0.171032
9.995370	0.000771	4.401294	0.000347	345146.212679	1125.734271	1813.236220	2134.268783	0.006184	1.610714	9.995370	0.173671
10.195300	0.000788	4.771999	0.000374	374222.149729	1183.302273	1912.365142	2248.854087	0.006009	1.616126	10.195300	0.177344
10.395200	0.000803	5.174013	0.000403	405746.213382	1245.275188	2016.300945	2369.848053	0.005841	1.619161	10.395200	0.180771
10.595100	0.000815	5.609759	0.000435	439921.741115	1312.036997	2125.158554	2497.546788	0.005677	1.619740	10.595100	0.183618
10.795000	0.000834	6.082342	0.000471	476974.316553	1384.000821	2239.032878	2632.247424	0.005519	1.617797	10.795000	0.187727
10.994900	0.000848	6.594630	0.000509	517149.222807	1461.603649	2357.983626	2774.233589	0.005364	1.613285	10.994900	0.191019
11.194800	0.000864	7.150203	0.000551	560709.749278	1545.310970	2482.037122	2923.780818	0.005214	1.606173	11.194800	0.194491
11.394700	0.000878	7.752403	0.000598	607941.900426	1635.611348	2611.171894	3081.143155	0.005068	1.596450	11.394700	0.197743
11.594600	0.000890	8.405497	0.000648	659154.286793	1733.002003	2745.292241	3246.525132	0.004925	1.584125	11.594600	0.200351
11.794500	0.000907	9.113464	0.000704	714673.917774	1838.015298	2884.263823	3420.128366	0.004786	1.569227	11.794500	0.204335
11.994400	0.000921	9.881063	0.000766	774869.387587	1951.186305	3027.854630	3602.087125	0.004649	1.551802	11.994400	0.207296
12.194300	0.000936	10.713453	0.000833	840141.272284	2073.025854	3175.693764	3792.422323	0.004514	1.531912	12.194300	0.210692
12.394300	0.000951	11.615924	0.000907	910923.443990	2203.899968	3327.109018	3990.843205	0.004381	1.509646	12.394300	0.214184
