MicroRheology Analysis v9.2.8
10/03/18 5:15:53 PM

Correlation Mode:	Cross
Geometry:	Transmission
Multi-Tau Duration (s):	120
Echo Duration (s):	60
Wavelength (nm):	685.0
Temperature (°C):	35.01
Cuvette Thickness (mm):	5.00
Absorption Length (mm):	152.480
Solvent:	Water
Solvent Refractive Index:	1.329
Particle Radius (nm):	300.0
Mean Count Rate (kHz):	575.8
l* (microns):	609.01



Lag Time (s)	Mean Square Displacement (micron^2)	Fit Lag Time (s)	Mean Square Displacement Fit (micron^2)	Frequency(rad/s)	G1 (Pa)	G2 (Pa)	G* (Pa)	Complex Viscosity (Pa s)	Loss Tangent (-)	Time (s)	Creep Compliance (1/Pa)

1.412500E-6	2.202805E-6	1.412520E-6	2.111388E-6	0.263275	-0.020876	2.795130	2.795208	10.617056	-133.894162	1.412500E-6	0.000488
1.512500E-6	2.176995E-6	1.555055E-6	2.287644E-6	0.289843	-0.043033	3.078061	3.078362	10.620804	-71.527587	1.512500E-6	0.000482
1.612500E-6	2.255148E-6	1.711972E-6	2.474811E-6	0.319089	-0.058034	3.393269	3.393765	10.635802	-58.469903	1.612500E-6	0.000500
1.812500E-6	2.437286E-6	1.884698E-6	2.673337E-6	0.351289	-0.063710	3.743913	3.744455	10.659179	-58.764783	1.812500E-6	0.000540
2.012500E-6	2.772978E-6	2.074906E-6	2.883791E-6	0.386739	-0.057457	4.133226	4.133626	10.688416	-71.936233	2.012500E-6	0.000614
2.212500E-6	3.171879E-6	2.284276E-6	3.106582E-6	0.425761	-0.036195	4.564581	4.564725	10.721322	-126.110028	2.212500E-6	0.000703
2.412500E-6	3.514475E-6	2.514738E-6	3.342214E-6	0.468724	0.003675	5.041239	5.041240	10.755248	1371.743871	2.412500E-6	0.000779
2.612500E-6	3.685372E-6	2.768510E-6	3.591289E-6	0.516021	0.066307	5.566446	5.566841	10.788016	83.948999	2.612500E-6	0.000816
2.812500E-6	3.701453E-6	3.047870E-6	3.854257E-6	0.568095	0.156426	6.143122	6.145114	10.817049	39.271693	2.812500E-6	0.000820
3.012500E-6	3.715759E-6	3.355451E-6	4.131692E-6	0.625419	0.279336	6.774014	6.779770	10.840363	24.250433	3.012500E-6	0.000823
3.212500E-6	3.917065E-6	3.694003E-6	4.424040E-6	0.688524	0.440948	7.461576	7.474594	10.855974	16.921675	3.212500E-6	0.000868
3.612500E-6	4.268141E-6	4.066751E-6	4.731913E-6	0.758003	0.647729	8.207589	8.233108	10.861573	12.671334	3.612500E-6	0.000945
4.012500E-6	4.668816E-6	4.477142E-6	5.055833E-6	0.834493	0.906652	9.013257	9.058742	10.855380	9.941256	4.012500E-6	0.001034
4.412500E-6	4.965435E-6	4.928876E-6	5.396249E-6	0.918699	1.225138	9.879004	9.954681	10.835632	8.063582	4.412500E-6	0.001100
4.812500E-6	5.239259E-6	5.426237E-6	5.753753E-6	1.011392	1.611070	10.804733	10.924185	10.801143	6.706559	4.812500E-6	0.001161
5.212500E-6	5.550700E-6	5.973835E-6	6.128846E-6	1.113462	2.072433	11.788631	11.969411	10.749730	5.688305	5.212500E-6	0.001230
5.612500E-6	5.841988E-6	6.576586E-6	6.521915E-6	1.225802	2.617478	12.828687	13.092990	10.681165	4.901163	5.612500E-6	0.001294
6.012500E-6	6.221905E-6	7.240229E-6	6.933527E-6	1.349501	3.254389	13.921137	14.296472	10.593891	4.277649	6.012500E-6	0.001378
6.412500E-6	6.509450E-6	7.970758E-6	7.364033E-6	1.485690	3.990938	15.060862	15.580666	10.487159	3.773764	6.412500E-6	0.001442
7.212500E-6	6.857784E-6	8.775150E-6	7.813965E-6	1.635589	4.834676	16.242065	16.946350	10.361009	3.359494	7.212500E-6	0.001519
8.012500E-6	7.326508E-6	9.660632E-6	8.283574E-6	1.800620	5.792570	17.457458	18.393388	10.215028	3.013767	8.012500E-6	0.001623
8.812500E-6	7.871117E-6	1.063551E-5	8.773259E-6	1.982322	6.870642	18.698421	19.920760	10.049203	2.721495	8.812500E-6	0.001744
9.612500E-6	8.248639E-6	1.170867E-5	9.283236E-6	2.182370	8.073720	19.955064	21.526484	9.863811	2.471607	9.612500E-6	0.001827
1.041250E-5	8.680867E-6	1.289016E-5	9.813814E-6	2.402580	9.405470	21.216747	23.208042	9.659632	2.255788	1.041250E-5	0.001923
1.121250E-5	9.002966E-6	1.419083E-5	1.036513E-5	2.644995	10.868468	22.472290	24.962520	9.437645	2.067659	1.121250E-5	0.001994
1.201250E-5	9.385915E-6	1.562285E-5	1.093737E-5	2.911929	12.463127	23.708923	26.785119	9.198410	1.902325	1.201250E-5	0.002079
1.281250E-5	9.842376E-6	1.719916E-5	1.153047E-5	3.205759	14.188282	24.914092	28.670880	8.943555	1.755963	1.281250E-5	0.002180
1.441250E-5	1.038609E-5	1.893458E-5	1.214452E-5	3.529203	16.041514	26.075343	30.614600	8.674649	1.625491	1.441250E-5	0.002301
1.601250E-5	1.093870E-5	2.084528E-5	1.277945E-5	3.885357	18.017924	27.179410	32.609292	8.392869	1.508465	1.601250E-5	0.002423
1.761250E-5	1.153411E-5	2.294889E-5	1.343507E-5	4.277418	20.111006	28.214020	34.647994	8.100212	1.402914	1.761250E-5	0.002555
1.921250E-5	1.207817E-5	2.526472E-5	1.411109E-5	4.709037	22.312499	29.167276	36.722985	7.798406	1.307217	1.921250E-5	0.002676
2.081250E-5	1.259273E-5	2.781384E-5	1.480707E-5	5.184187	24.612789	30.028444	38.826496	7.489409	1.220034	2.081250E-5	0.002790
2.241250E-5	1.307605E-5	3.062061E-5	1.552279E-5	5.707343	27.000300	30.787423	40.949745	7.174922	1.140262	2.241250E-5	0.002897
2.401250E-5	1.362868E-5	3.370999E-5	1.625746E-5	6.283260	29.462386	31.435875	43.084179	6.856979	1.066983	2.401250E-5	0.003019
2.561250E-5	1.429853E-5	3.711159E-5	1.701072E-5	6.917287	31.985187	31.966752	45.220852	6.537368	0.999424	2.561250E-5	0.003167
2.881250E-5	1.505713E-5	4.085668E-5	1.778177E-5	7.615225	34.554512	32.375019	47.351412	6.217993	0.936926	2.881250E-5	0.003335
3.201250E-5	1.585904E-5	4.497908E-5	1.856964E-5	8.383649	37.155248	32.656985	49.467071	5.900422	0.878933	3.201250E-5	0.003513
3.521250E-5	1.662602E-5	4.951793E-5	1.937360E-5	9.229601	39.772542	32.811188	51.559957	5.586369	0.824971	3.521250E-5	0.003683
3.841250E-5	1.728305E-5	5.451475E-5	2.019255E-5	10.161099	42.390204	32.837273	53.621039	5.277091	0.774643	3.841250E-5	0.003829
4.161250E-5	1.793722E-5	6.001549E-5	2.102533E-5	11.186254	44.994283	32.737917	55.644018	4.974321	0.727602	4.161250E-5	0.003973
4.481250E-5	1.853090E-5	6.607180E-5	2.187085E-5	12.315078	47.570298	32.516272	57.621534	4.678942	0.683541	4.481250E-5	0.004105
4.801250E-5	1.919076E-5	7.273890E-5	2.272772E-5	13.557767	50.104782	32.177772	59.547445	4.392128	0.642210	4.801250E-5	0.004251
5.121250E-5	1.992523E-5	8.007854E-5	2.359457E-5	14.925822	52.585619	31.729142	61.416494	4.114781	0.603381	5.121250E-5	0.004414
5.761250E-5	2.076950E-5	8.815898E-5	2.447000E-5	16.432039	55.001322	31.178216	63.223623	3.847582	0.566863	5.761250E-5	0.004601
6.401250E-5	2.169428E-5	9.705550E-5	2.535255E-5	18.090034	57.342713	30.534251	64.965585	3.591236	0.532487	6.401250E-5	0.004806
7.041250E-5	2.259920E-5	0.000107	2.624052E-5	19.915660	59.601019	29.806862	66.638806	3.346051	0.500107	7.041250E-5	0.005006
7.681250E-5	2.339678E-5	0.000118	2.713228E-5	21.925261	61.769384	29.006860	68.241151	3.112444	0.469599	7.681250E-5	0.005183
8.321250E-5	2.414726E-5	0.000129	2.802615E-5	24.137327	63.843204	28.145259	69.771844	2.890620	0.440850	8.321250E-5	0.005349
8.961250E-5	2.477261E-5	0.000143	2.892058E-5	26.572986	65.818623	27.233070	71.230129	2.680547	0.413759	8.961250E-5	0.005488
9.601250E-5	2.545408E-5	0.000157	2.981371E-5	29.254461	67.693286	26.281728	72.616184	2.482226	0.388247	9.601250E-5	0.005639
0.000102	2.624293E-5	0.000173	3.070380E-5	32.206300	69.466824	25.302461	73.931416	2.295558	0.364238	0.000102	0.005813
0.000115	2.711664E-5	0.000190	3.158926E-5	35.456483	71.139406	24.306097	75.177133	2.120265	0.341669	0.000115	0.006007
0.000128	2.807478E-5	0.000209	3.246840E-5	39.034135	72.713176	23.303343	76.356085	1.956136	0.320483	0.000128	0.006219
0.000141	2.902732E-5	0.000231	3.333924E-5	42.973132	74.190864	22.304123	77.471016	1.802778	0.300632	0.000141	0.006430
0.000154	2.983788E-5	0.000254	3.420057E-5	47.309274	75.576634	21.317960	78.525684	1.659837	0.282071	0.000154	0.006610
0.000166	3.059577E-5	0.000279	3.505048E-5	52.083528	76.874874	20.353628	79.523684	1.526849	0.264763	0.000166	0.006778
0.000179	3.123443E-5	0.000308	3.588762E-5	57.338698	78.091422	19.419342	80.469753	1.403411	0.248674	0.000179	0.006919
0.000192	3.189526E-5	0.000339	3.671066E-5	63.125069	79.231943	18.522433	81.368184	1.289000	0.233775	0.000192	0.007065
0.000205	3.265134E-5	0.000373	3.751825E-5	69.494378	80.303043	17.669754	82.224078	1.183176	0.220038	0.000205	0.007233
0.000230	3.350215E-5	0.000410	3.830910E-5	76.506274	81.311612	16.867221	83.042648	1.085436	0.207439	0.000230	0.007421
0.000256	3.440832E-5	0.000452	3.908221E-5	84.226299	82.264682	16.120140	83.829213	0.995285	0.195955	0.000256	0.007622
0.000282	3.528875E-5	0.000497	3.983650E-5	92.726400	83.169091	15.433286	84.588912	0.912242	0.185565	0.000282	0.007817
0.000307	3.601797E-5	0.000548	4.057130E-5	102.082804	84.032141	14.810850	85.327382	0.835864	0.176252	0.000307	0.007979
0.000333	3.667661E-5	0.000603	4.128589E-5	112.383516	84.860857	14.256346	86.050034	0.765682	0.167997	0.000333	0.008125
0.000358	3.722968E-5	0.000664	4.197993E-5	123.722879	85.662437	13.772843	86.762575	0.701265	0.160780	0.000358	0.008247
0.000384	3.779693E-5	0.000731	4.265274E-5	136.208921	86.443351	13.362987	87.470122	0.642176	0.154587	0.000384	0.008373
0.000410	3.842595E-5	0.000805	4.330449E-5	149.951900	87.210455	13.029117	88.178350	0.588044	0.149399	0.000410	0.008512
0.000461	3.912519E-5	0.000886	4.393483E-5	165.082987	87.970028	12.773127	88.892511	0.538472	0.145199	0.000461	0.008667
0.000512	3.986665E-5	0.000975	4.454432E-5	181.740516	88.728286	12.596735	89.618004	0.493110	0.141970	0.000512	0.008831
0.000563	4.058646E-5	0.001073	4.513305E-5	200.081359	89.490808	12.501420	90.359782	0.451615	0.139695	0.000563	0.008991
0.000614	4.118003E-5	0.001182	4.570160E-5	220.268993	90.263363	12.488544	91.123204	0.413691	0.138357	0.000614	0.009122
0.000666	4.172283E-5	0.001301	4.625068E-5	242.496108	91.051207	12.559322	91.913323	0.379030	0.137937	0.000666	0.009242
0.000717	4.217687E-5	0.001432	4.678122E-5	266.969134	91.859052	12.714897	92.734859	0.347362	0.138417	0.000717	0.009343
0.000768	4.262634E-5	0.001577	4.729423E-5	293.905831	92.691835	12.956441	93.592979	0.318445	0.139780	0.000768	0.009443
0.000819	4.312742E-5	0.001736	4.779089E-5	323.563516	93.553832	13.285098	94.492398	0.292037	0.142005	0.000819	0.009554
0.000922	4.368978E-5	0.001911	4.827274E-5	356.210643	94.449344	13.702106	95.438076	0.267926	0.145074	0.000922	0.009678
0.001024	4.428372E-5	0.002104	4.874124E-5	392.153712	95.382429	14.208846	96.434947	0.245911	0.148967	0.001024	0.009810
0.001126	4.486995E-5	0.002316	4.919821E-5	431.730532	96.356590	14.806705	97.487594	0.225807	0.153666	0.001126	0.009940
0.001229	4.537335E-5	0.002550	4.964556E-5	475.296224	97.375421	15.497215	98.600894	0.207451	0.159149	0.001229	0.010051
0.001331	4.582527E-5	0.002807	5.008521E-5	523.254405	98.442447	16.282201	99.779885	0.190691	0.165398	0.001331	0.010151
0.001434	4.620395E-5	0.003091	5.051944E-5	576.055520	99.560729	17.163576	101.029338	0.175381	0.172393	0.001434	0.010235
0.001536	4.658584E-5	0.003402	5.095068E-5	634.176982	100.733658	18.143590	102.354578	0.161397	0.180114	0.001536	0.010320
0.001638	4.701209E-5	0.003746	5.138134E-5	698.170610	101.964175	19.224732	103.760702	0.148618	0.188544	0.001638	0.010414
0.001843	4.749301E-5	0.004124	5.181425E-5	768.623376	103.255175	20.409632	105.252953	0.136937	0.197662	0.001843	0.010521
0.002048	4.802555E-5	0.004540	5.225207E-5	846.181629	104.609652	21.701295	106.836911	0.126258	0.207450	0.002048	0.010639
0.002253	4.856488E-5	0.004998	5.269777E-5	931.566590	106.030535	23.103076	108.518323	0.116490	0.217891	0.002253	0.010758
0.002458	4.903702E-5	0.005502	5.315463E-5	1025.569804	107.520835	24.618715	110.303268	0.107553	0.228967	0.002458	0.010863
0.002662	4.948076E-5	0.006058	5.362576E-5	1129.069394	109.082909	26.251893	112.197340	0.099372	0.240660	0.002662	0.010961
0.002867	4.985022E-5	0.006669	5.411469E-5	1242.978762	110.720661	28.007348	114.208039	0.091883	0.252955	0.002867	0.011043
0.003072	5.021310E-5	0.007342	5.462498E-5	1368.419802	112.436239	29.889704	116.341318	0.085019	0.265837	0.003072	0.011123
0.003277	5.062842E-5	0.008083	5.516060E-5	1506.485734	114.233697	31.904433	118.605355	0.078730	0.279291	0.003277	0.011215
0.003686	5.111648E-5	0.008898	5.572531E-5	1658.524878	116.115409	34.057047	121.006903	0.072961	0.293303	0.003686	0.011323
0.004096	5.164686E-5	0.009796	5.632348E-5	1825.873842	118.085214	36.353674	123.554471	0.067669	0.307860	0.004096	0.011441
0.004506	5.218755E-5	0.010784	5.695948E-5	2010.112043	120.146493	38.801120	126.256511	0.062811	0.322948	0.004506	0.011561
0.004915	5.266355E-5	0.011873	5.763812E-5	2212.929580	122.303396	41.406953	129.122641	0.058349	0.338559	0.004915	0.011666
0.005325	5.312202E-5	0.013071	5.836417E-5	2436.242886	124.559436	44.179000	132.162163	0.054248	0.354682	0.005325	0.011768
0.005734	5.350196E-5	0.014390	5.914290E-5	2682.080780	126.919034	47.125877	135.385706	0.050478	0.371307	0.005734	0.011852
0.006144	5.390574E-5	0.015842	5.997995E-5	2952.740849	129.386319	50.256786	138.804050	0.047009	0.388424	0.006144	0.011941
0.006554	5.439409E-5	0.017440	6.088143E-5	3250.699685	131.965860	53.581583	142.428840	0.043815	0.406026	0.006554	0.012049
0.007373	5.497171E-5	0.019200	6.185341E-5	3578.694711	134.662892	57.111307	146.273018	0.040873	0.424106	0.007373	0.012177
0.008192	5.563744E-5	0.021138	6.290305E-5	3939.787664	137.483145	60.858248	150.350729	0.038162	0.442660	0.008192	0.012325
0.009011	5.632977E-5	0.023270	6.403738E-5	4337.384202	140.430946	64.834286	154.674935	0.035661	0.461681	0.009011	0.012478
0.009830	5.690324E-5	0.025619	6.526453E-5	4775.002669	143.513954	69.054048	159.263042	0.033353	0.481166	0.009830	0.012605
0.010650	5.748247E-5	0.028204	6.659286E-5	5256.897614	146.737108	73.531923	164.130200	0.031222	0.501113	0.010650	0.012733
0.011469	5.797564E-5	0.031050	6.803193E-5	5787.364277	150.107359	78.283572	169.294232	0.029252	0.521517	0.011469	0.012843
0.012288	5.852728E-5	0.034183	6.959139E-5	6371.305497	153.632455	83.326905	174.775011	0.027432	0.542378	0.012288	0.012965
0.013107	5.920235E-5	0.037632	7.128254E-5	7014.209702	157.319869	88.680858	180.593011	0.025747	0.563698	0.013107	0.013114
0.014746	6.001576E-5	0.041430	7.311719E-5	7722.018989	161.176970	94.365023	186.769305	0.024187	0.585475	0.014746	0.013295
0.016384	6.094323E-5	0.045609	7.510813E-5	8501.153295	165.213286	100.401929	193.328677	0.022741	0.607711	0.016384	0.013500
0.018022	6.196799E-5	0.050212	7.727028E-5	9358.958895	169.437807	106.815652	200.296665	0.021402	0.630412	0.018022	0.013727
0.019661	6.290298E-5	0.055279	7.961944E-5	10303.382601	173.860047	113.631833	207.700528	0.020158	0.653582	0.019661	0.013934
0.021299	6.385708E-5	0.060857	8.217223E-5	11343.144524	178.489621	120.877695	215.568927	0.019004	0.677225	0.021299	0.014146
0.022938	6.462470E-5	0.066998	8.494854E-5	12487.740795	183.337640	128.583503	223.933936	0.017932	0.701348	0.022938	0.014316
0.024576	6.540478E-5	0.073758	8.796892E-5	13747.801394	188.415713	136.782379	232.830196	0.016936	0.725961	0.024576	0.014488
0.026214	6.639243E-5	0.081201	9.125700E-5	15135.049073	193.735899	145.510102	242.294837	0.016009	0.751075	0.026214	0.014707
0.029491	6.765812E-5	0.089395	9.483870E-5	16662.364865	199.309809	154.804207	252.366286	0.015146	0.776701	0.029491	0.014988
0.032768	6.920217E-5	0.098415	9.874176E-5	18343.660173	205.151637	164.707265	263.088725	0.014342	0.802856	0.032768	0.015330
0.036045	7.089881E-5	0.108347	0.000103	20194.706814	211.274640	175.264547	274.507987	0.013593	0.829558	0.036045	0.015705
0.039322	7.249953E-5	0.119280	0.000108	22232.556698	217.692270	186.524202	286.672640	0.012894	0.856825	0.039322	0.016060
0.042598	7.410763E-5	0.131316	0.000113	24475.799931	224.421519	198.542083	299.639745	0.012242	0.884684	0.042598	0.016416
0.045875	7.540910E-5	0.144565	0.000118	26945.758945	231.475684	211.374966	313.465099	0.011633	0.913163	0.045875	0.016705
0.049152	7.681334E-5	0.159153	0.000124	29664.798228	238.869937	225.084790	328.210313	0.011064	0.942290	0.049152	0.017016
0.052429	7.861526E-5	0.175213	0.000131	32657.738186	246.623823	239.744861	343.948991	0.010532	0.972107	0.052429	0.017415
0.058982	8.089047E-5	0.192894	0.000138	35953.328588	254.749672	255.426851	360.749597	0.010034	1.002658	0.058982	0.017919
0.065536	8.372054E-5	0.212358	0.000146	39580.888147	263.267815	272.216848	378.697710	0.009568	1.033992	0.065536	0.018546
0.072090	8.690514E-5	0.233786	0.000155	43575.100805	272.192789	290.203891	397.878389	0.009131	1.066170	0.072090	0.019251
0.078643	8.983089E-5	0.257377	0.000165	47972.483309	281.540315	309.485245	418.385068	0.008721	1.099257	0.078643	0.019899
0.085197	9.286722E-5	0.283350	0.000175	52813.434264	291.325372	330.167377	440.319167	0.008337	1.133329	0.085197	0.020572
0.091750	9.533692E-5	0.311939	0.000187	58142.371631	301.563501	352.369140	463.793657	0.007977	1.168474	0.091750	0.021119
0.098304	9.788874E-5	0.343415	0.000200	64008.825709	312.270080	376.223441	488.934229	0.007639	1.204801	0.098304	0.021684
0.104858	0.000101	0.378073	0.000214	70468.046849	323.453581	401.868473	515.868674	0.007321	1.242430	0.104858	0.022389
0.117965	0.000105	0.416219	0.000230	77578.542854	335.125240	429.462197	544.744624	0.007022	1.281498	0.117965	0.023284
0.131072	0.000110	0.458217	0.000247	85406.812339	347.289447	459.174207	575.717737	0.006741	1.322166	0.131072	0.024374
0.144179	0.000116	0.504459	0.000266	94024.611736	359.950573	491.196866	608.965332	0.006477	1.364623	0.144179	0.025641
0.157286	0.000121	0.555364	0.000287	103512.898315	373.102486	525.734230	644.671967	0.006228	1.409088	0.157286	0.026844
0.170394	0.000127	0.611401	0.000311	113958.171046	386.738330	563.019548	683.050179	0.005994	1.455815	0.170394	0.028067
0.183501	0.000132	0.673088	0.000337	125458.586138	400.834296	603.295575	724.316011	0.005773	1.505100	0.183501	0.029309
0.399815	0.000222	0.741014	0.000365	138117.180510	415.369033	646.850753	768.730987	0.005566	1.557292	0.399815	0.049186
0.599723	0.000307	0.815793	0.000397	152054.577639	430.296372	693.984742	816.559728	0.005370	1.612806	0.599723	0.067997
0.799630	0.000396	0.898100	0.000433	167396.667809	445.567739	745.049810	868.118557	0.005186	1.672136	0.799630	0.087771
0.999538	0.000482	0.988737	0.000472	184289.761909	461.102006	800.411326	923.727964	0.005012	1.735866	0.999538	0.106771
1.199450	0.000573	1.088496	0.000516	202886.008184	476.803900	860.483379	983.754850	0.004849	1.804690	1.199450	0.126909
1.399350	0.000661	1.198332	0.000564	223356.782496	492.555951	925.741876	1048.622614	0.004695	1.879465	1.399350	0.146532
1.599260	0.000750	1.319256	0.000618	245896.545447	508.195088	996.686844	1118.770268	0.004550	1.961229	1.599260	0.166047
1.799170	0.000843	1.452383	0.000678	270709.058409	523.527444	1073.883643	1194.699570	0.004413	2.051246	1.799170	0.186717
1.999080	0.000933	1.598928	0.000745	298022.572426	538.319919	1157.989745	1276.999838	0.004285	2.151118	1.999080	0.206717
2.198980	0.001027	1.760268	0.000819	328097.939799	552.266314	1249.696203	1366.286457	0.004164	2.262851	2.198980	0.227438
2.398890	0.001117	1.937906	0.000901	361205.111283	565.014893	1349.821719	1463.304651	0.004051	2.389002	2.398890	0.247335
2.598800	0.001208	2.133453	0.000992	397655.740147	576.123051	1459.259547	1568.870994	0.003945	2.532896	2.598800	0.267540
2.798710	0.001314	2.348734	0.001092	437775.533452	585.089904	1579.127580	1684.035068	0.003847	2.698949	2.798710	0.291181
2.998610	0.001387	2.585724	0.001204	481949.585808	591.304109	1710.744930	1810.052144	0.003756	2.893173	2.998610	0.307339
3.198520	0.001467	2.846657	0.001326	530588.880309	594.051783	1855.716845	1948.482109	0.003672	3.123830	3.198520	0.324861
3.398430	0.001595	3.133924	0.001462	584121.781218	592.552449	2016.327222	2101.593175	0.003598	3.402783	3.398430	0.353432
3.598340	0.001693	3.450148	0.001611	643064.099013	585.894526	2195.741851	2272.565658	0.003534	3.747674	3.598340	0.374979
