MicroRheology Analysis v9.2.8
10/03/18 5:17:24 PM

Correlation Mode:	Cross
Geometry:	Transmission
Multi-Tau Duration (s):	120
Echo Duration (s):	60
Wavelength (nm):	685.0
Temperature (°C):	40.02
Cuvette Thickness (mm):	5.00
Absorption Length (mm):	Inf
Solvent:	Water
Solvent Refractive Index:	1.328
Particle Radius (nm):	300.0
Mean Count Rate (kHz):	603.2
l* (microns):	543.62



Lag Time (s)	Mean Square Displacement (micron^2)	Fit Lag Time (s)	Mean Square Displacement Fit (micron^2)	Frequency(rad/s)	G1 (Pa)	G2 (Pa)	G* (Pa)	Complex Viscosity (Pa s)	Loss Tangent (-)	Time (s)	Creep Compliance (1/Pa)

1.312500E-6	2.087127E-6	1.312516E-6	1.898784E-6	0.333486	1.946491	3.071203	3.636085	10.903262	1.577815	1.312500E-6	0.000455
1.412500E-6	1.998006E-6	1.446165E-6	2.050450E-6	0.367441	1.843396	3.385167	3.854539	10.490214	1.836375	1.412500E-6	0.000436
1.512500E-6	2.005058E-6	1.593395E-6	2.210563E-6	0.404853	1.744824	3.711770	4.101420	10.130644	2.127303	1.512500E-6	0.000437
1.612500E-6	2.108291E-6	1.755639E-6	2.379529E-6	0.446078	1.652547	4.056038	4.379767	9.818394	2.454416	1.612500E-6	0.000460
1.812500E-6	2.334517E-6	1.934406E-6	2.557698E-6	0.491497	1.568299	4.423113	4.692919	9.548219	2.820325	1.812500E-6	0.000509
2.012500E-6	2.641230E-6	2.131388E-6	2.745465E-6	0.541542	1.493856	4.818165	5.044434	9.314945	3.225322	2.012500E-6	0.000576
2.212500E-6	2.950332E-6	2.348405E-6	2.943196E-6	0.596685	1.431217	5.246422	5.438136	9.113916	3.665708	2.212500E-6	0.000643
2.412500E-6	3.183597E-6	2.587536E-6	3.151338E-6	0.657445	1.382706	5.713068	5.878012	8.940695	4.131802	2.412500E-6	0.000694
2.612500E-6	3.335617E-6	2.850974E-6	3.370266E-6	0.724378	1.351132	6.223588	6.368564	8.791769	4.606203	2.612500E-6	0.000727
2.812500E-6	3.350459E-6	3.141261E-6	3.600470E-6	0.798135	1.339798	6.783301	6.914349	8.663127	5.062929	2.812500E-6	0.000730
3.012500E-6	3.379516E-6	3.461137E-6	3.842394E-6	0.879401	1.352710	7.397699	7.520357	8.551684	5.468798	3.012500E-6	0.000737
3.212500E-6	3.577504E-6	3.813550E-6	4.096442E-6	0.968956	1.394561	8.071886	8.191467	8.453911	5.788119	3.212500E-6	0.000780
3.612500E-6	3.889269E-6	4.201813E-6	4.363065E-6	1.067613	1.470913	8.811124	8.933056	8.367314	5.990242	3.612500E-6	0.000848
4.012500E-6	4.191515E-6	4.629677E-6	4.642783E-6	1.176318	1.588171	9.620304	9.750514	8.289015	6.057472	4.012500E-6	0.000914
4.412500E-6	4.475645E-6	5.101054E-6	4.935971E-6	1.296092	1.753658	10.503830	10.649214	8.216402	5.989667	4.412500E-6	0.000976
4.812500E-6	4.689085E-6	5.620522E-6	5.243159E-6	1.428052	1.975681	11.465806	11.634776	8.147306	5.803471	4.812500E-6	0.001022
5.212500E-6	4.902326E-6	6.192761E-6	5.564662E-6	1.573467	2.263413	12.509211	12.712333	8.079189	5.526703	5.212500E-6	0.001069
5.612500E-6	5.137784E-6	6.823343E-6	5.901006E-6	1.733673	2.626979	13.636461	13.887192	8.010270	5.190930	5.612500E-6	0.001120
6.012500E-6	5.457032E-6	7.518125E-6	6.252553E-6	1.910207	3.077275	14.848583	15.164104	7.938463	4.825238	6.012500E-6	0.001190
6.412500E-6	5.733894E-6	8.283556E-6	6.619642E-6	2.104717	3.625836	16.145209	16.547340	7.862027	4.452824	6.412500E-6	0.001250
7.212500E-6	6.087406E-6	9.127129E-6	7.002760E-6	2.319014	4.284832	17.524837	18.041056	7.779624	4.089970	7.212500E-6	0.001327
8.012500E-6	6.473114E-6	1.005633E-5	7.402028E-6	2.555167	5.066455	18.983351	19.647814	7.689445	3.746870	8.012500E-6	0.001411
8.812500E-6	6.901262E-6	1.108039E-5	7.817933E-6	2.815297	5.983212	20.515872	21.370536	7.590863	3.428906	8.812500E-6	0.001504
9.612500E-6	7.221239E-6	1.220867E-5	8.250603E-6	3.101950	7.047322	22.114956	23.210688	7.482612	3.138065	9.612500E-6	0.001574
1.041250E-5	7.596795E-6	1.345165E-5	8.700179E-6	3.417834	8.270115	23.770733	25.168284	7.363810	2.874293	1.041250E-5	0.001656
1.121250E-5	7.902931E-6	1.482138E-5	9.166933E-6	3.765861	9.662010	25.471624	27.242578	7.234089	2.636266	1.121250E-5	0.001723
1.201250E-5	8.244064E-6	1.633040E-5	9.650819E-6	4.149314	11.231888	27.203672	29.431192	7.093026	2.422003	1.201250E-5	0.001797
1.281250E-5	8.598597E-6	1.799314E-5	1.015193E-5	4.571726	12.987483	28.952091	31.731661	6.940850	2.229230	1.281250E-5	0.001874
1.441250E-5	9.020676E-6	1.982532E-5	1.067021E-5	5.037251	14.933872	30.699098	34.138764	6.777261	2.055669	1.441250E-5	0.001966
1.601250E-5	9.459340E-6	2.184425E-5	1.120556E-5	5.550159	17.073795	32.426221	36.646614	6.602804	1.899181	1.601250E-5	0.002062
1.761250E-5	9.974411E-6	2.406814E-5	1.175756E-5	6.115315	19.407197	34.113627	39.247660	6.417930	1.757782	1.761250E-5	0.002174
1.921250E-5	1.043078E-5	2.651872E-5	1.232612E-5	6.737996	21.931222	35.741139	41.933370	6.223419	1.629692	1.921250E-5	0.002274
2.081250E-5	1.086401E-5	2.921906E-5	1.291085E-5	7.424095	24.639754	37.288119	44.693638	6.020079	1.513332	2.081250E-5	0.002368
2.241250E-5	1.126336E-5	3.219447E-5	1.351125E-5	8.180005	27.523580	38.734455	47.517423	5.808973	1.407319	2.241250E-5	0.002455
2.401250E-5	1.170425E-5	3.547237E-5	1.412664E-5	9.012802	30.571333	40.061501	50.393752	5.591352	1.310427	2.401250E-5	0.002551
2.561250E-5	1.225282E-5	3.908431E-5	1.475649E-5	9.930625	33.767399	41.250492	53.308915	5.368133	1.221607	2.561250E-5	0.002671
2.881250E-5	1.288712E-5	4.306354E-5	1.539993E-5	10.941784	37.094128	42.285728	56.249952	5.140839	1.139957	2.881250E-5	0.002809
3.201250E-5	1.354481E-5	4.744894E-5	1.605632E-5	12.055885	40.531584	43.153276	59.203163	4.910727	1.064683	3.201250E-5	0.002952
3.521250E-5	1.416587E-5	5.228023E-5	1.672449E-5	13.283375	44.058250	43.842094	62.155117	4.679166	0.995094	3.521250E-5	0.003088
3.841250E-5	1.470318E-5	5.760349E-5	1.740349E-5	14.635956	47.650884	44.343685	65.092006	4.447404	0.930595	3.841250E-5	0.003205
4.161250E-5	1.522482E-5	6.346852E-5	1.809217E-5	16.126319	51.284843	44.652637	67.999950	4.216706	0.870679	4.161250E-5	0.003319
4.481250E-5	1.572767E-5	6.993159E-5	1.878944E-5	17.768215	54.936298	44.767364	70.866873	3.988407	0.814896	4.481250E-5	0.003428
4.801250E-5	1.625478E-5	7.705219E-5	1.949388E-5	19.577525	58.580187	44.688490	73.679708	3.763484	0.762860	4.801250E-5	0.003543
5.121250E-5	1.684459E-5	8.489704E-5	2.020411E-5	21.570660	62.193759	44.420936	76.428288	3.543160	0.714235	5.121250E-5	0.003672
5.761250E-5	1.752249E-5	9.354226E-5	2.091894E-5	23.767063	65.754767	43.971537	79.102373	3.328235	0.668720	5.761250E-5	0.003819
6.401250E-5	1.825594E-5	0.000103	2.163662E-5	26.187399	69.241443	43.350100	81.692157	3.119522	0.626072	6.401250E-5	0.003979
7.041250E-5	1.896779E-5	0.000114	2.235585E-5	28.853595	72.635914	42.569537	84.191101	2.917872	0.586067	7.041250E-5	0.004135
7.681250E-5	1.961687E-5	0.000125	2.307503E-5	31.791676	75.921249	41.643795	86.592388	2.723744	0.548513	7.681250E-5	0.004276
8.321250E-5	2.021393E-5	0.000138	2.379266E-5	35.028572	79.084148	40.589285	88.892027	2.537701	0.513242	8.321250E-5	0.004406
8.961250E-5	2.070851E-5	0.000152	2.450705E-5	38.595626	82.112728	39.423039	91.086091	2.360011	0.480109	8.961250E-5	0.004514
9.601250E-5	2.124923E-5	0.000167	2.521670E-5	42.525430	84.998591	38.163608	93.173073	2.190997	0.448991	9.601250E-5	0.004632
0.000102	2.186693E-5	0.000184	2.592016E-5	46.855234	87.736280	36.829584	95.152893	2.030785	0.419776	0.000102	0.004766
0.000115	2.254568E-5	0.000203	2.661594E-5	51.626318	90.322109	35.439698	97.026056	1.879391	0.392370	0.000115	0.004914
0.000128	2.330292E-5	0.000224	2.730243E-5	56.882455	92.756050	34.012729	98.795499	1.736836	0.366690	0.000128	0.005079
0.000141	2.404565E-5	0.000247	2.797852E-5	62.674676	95.039186	32.566549	100.464058	1.602945	0.342664	0.000141	0.005241
0.000154	2.466543E-5	0.000272	2.864258E-5	69.055805	97.175752	31.118731	102.036769	1.477599	0.320231	0.000154	0.005376
0.000166	2.523559E-5	0.000299	2.929365E-5	76.087461	99.171254	29.685465	103.518909	1.360525	0.299335	0.000166	0.005501
0.000179	2.572449E-5	0.000330	2.993062E-5	83.835354	101.032698	28.282211	104.916584	1.251460	0.279931	0.000179	0.005607
0.000192	2.623754E-5	0.000364	3.055249E-5	92.371448	102.768994	26.923124	106.237097	1.150108	0.261977	0.000192	0.005719
0.000205	2.682419E-5	0.000401	3.115834E-5	101.777626	104.389248	25.621062	107.487459	1.056101	0.245438	0.000205	0.005847
0.000230	2.746936E-5	0.000441	3.174747E-5	112.138896	105.904792	24.387680	108.676510	0.969124	0.230279	0.000230	0.005988
0.000256	2.814635E-5	0.000486	3.231931E-5	123.558202	107.326208	23.233061	109.812067	0.888748	0.216471	0.000256	0.006135
0.000282	2.879761E-5	0.000536	3.287349E-5	136.139197	108.665183	22.166531	110.903007	0.814630	0.203989	0.000282	0.006277
0.000307	2.933848E-5	0.000590	3.340987E-5	150.002264	109.933165	21.196003	111.957899	0.746375	0.192808	0.000307	0.006395
0.000333	2.982953E-5	0.000650	3.392816E-5	165.275508	111.141902	20.328436	112.985697	0.683620	0.182905	0.000333	0.006502
0.000358	3.024761E-5	0.000717	3.442861E-5	182.103181	112.303133	19.569658	113.995461	0.625994	0.174257	0.000358	0.006593
0.000384	3.067726E-5	0.000790	3.491147E-5	200.646370	113.427909	18.924693	114.995802	0.573127	0.166843	0.000384	0.006687
0.000410	3.115358E-5	0.000870	3.537725E-5	221.076070	114.527297	18.397874	115.995619	0.524686	0.160642	0.000410	0.006791
0.000461	3.168771E-5	0.000959	3.582642E-5	243.586928	115.611582	17.992797	117.003328	0.480335	0.155631	0.000461	0.006907
0.000512	3.225598E-5	0.001056	3.625999E-5	268.386120	116.691160	17.712562	118.027800	0.439769	0.151790	0.000512	0.007031
0.000563	3.281035E-5	0.001164	3.667880E-5	295.716057	117.775177	17.559760	119.077023	0.402674	0.149096	0.000563	0.007152
0.000614	3.326952E-5	0.001282	3.708410E-5	325.825902	118.872767	17.536765	120.159364	0.368784	0.147526	0.000614	0.007252
0.000666	3.368686E-5	0.001413	3.747727E-5	359.004686	119.992049	17.645599	121.282559	0.337830	0.147056	0.000666	0.007343
0.000717	3.402862E-5	0.001557	3.785968E-5	395.556269	121.141092	17.888201	122.454693	0.309576	0.147664	0.000717	0.007417
0.000768	3.437558E-5	0.001715	3.823315E-5	435.832229	122.327041	18.266376	123.683328	0.283787	0.149324	0.000768	0.007493
0.000819	3.476376E-5	0.001890	3.859939E-5	480.205938	123.557009	18.782041	124.976396	0.260256	0.152011	0.000819	0.007578
0.000922	3.520341E-5	0.002082	3.896057E-5	529.108603	124.836751	19.436973	126.340849	0.238781	0.155699	0.000922	0.007673
0.001024	3.566447E-5	0.002294	3.931867E-5	582.976065	126.172702	20.233275	127.784726	0.219194	0.160362	0.001024	0.007774
0.001126	3.612614E-5	0.002528	3.967611E-5	642.340551	127.569890	21.173093	129.315029	0.201318	0.165972	0.001126	0.007875
0.001229	3.651970E-5	0.002785	4.003531E-5	707.739398	129.033917	22.258942	130.939728	0.185011	0.172505	0.001229	0.007960
0.001331	3.688337E-5	0.003069	4.039896E-5	779.813165	130.569077	23.493420	132.665838	0.170125	0.179931	0.001331	0.008040
0.001434	3.718562E-5	0.003382	4.076974E-5	859.213171	132.180102	24.879416	134.501170	0.156540	0.188224	0.001434	0.008106
0.001536	3.748238E-5	0.003726	4.115066E-5	946.695404	133.871567	26.420465	136.453792	0.144137	0.197357	0.001536	0.008170
0.001638	3.781331E-5	0.004105	4.154468E-5	1043.099058	135.647053	28.120033	138.531077	0.132807	0.207303	0.001638	0.008242
0.001843	3.820355E-5	0.004523	4.195518E-5	1149.295120	137.511412	29.982481	140.742096	0.122459	0.218036	0.001843	0.008327
0.002048	3.864295E-5	0.004984	4.238553E-5	1266.334846	139.467860	32.012256	143.094614	0.112999	0.229531	0.002048	0.008423
0.002253	3.909133E-5	0.005491	4.283937E-5	1395.272638	141.520647	34.214241	145.597760	0.104351	0.241761	0.002253	0.008521
0.002458	3.948640E-5	0.006051	4.332042E-5	1537.339475	143.673556	36.593966	148.260612	0.096440	0.254702	0.002458	0.008607
0.002662	3.984819E-5	0.006667	4.383277E-5	1693.859377	145.931226	39.157849	151.093546	0.089201	0.268331	0.002662	0.008686
0.002867	4.015471E-5	0.007345	4.438069E-5	1866.352501	148.296864	41.912176	154.105777	0.082571	0.282623	0.002867	0.008753
0.003072	4.046726E-5	0.008093	4.496859E-5	2056.372438	150.775286	44.864110	157.308535	0.076498	0.297556	0.003072	0.008821
0.003277	4.084461E-5	0.008918	4.560134E-5	2265.740585	153.371111	48.021878	160.713404	0.070932	0.313109	0.003277	0.008903
0.003686	4.128937E-5	0.009825	4.628378E-5	2496.441527	156.089020	51.394126	164.332402	0.065827	0.329262	0.003686	0.009000
0.004096	4.178402E-5	0.010826	4.702170E-5	2750.643821	158.934095	54.990230	168.178394	0.061141	0.345994	0.004096	0.009108
0.004506	4.228361E-5	0.011928	4.782066E-5	3030.745875	161.911350	58.820080	172.264584	0.056839	0.363286	0.004506	0.009217
0.004915	4.271425E-5	0.013143	4.868704E-5	3339.350083	165.026554	62.894507	176.605443	0.052886	0.381117	0.004915	0.009311
0.005325	4.311842E-5	0.014481	4.962747E-5	3679.355999	168.285754	67.225301	181.216269	0.049252	0.399471	0.005325	0.009399
0.005734	4.346847E-5	0.015955	5.064910E-5	4053.945544	171.696857	71.826370	186.115121	0.045910	0.418332	0.005734	0.009475
0.006144	4.384627E-5	0.017580	5.176005E-5	4466.784216	175.265063	76.710684	191.317462	0.042831	0.437684	0.006144	0.009557
0.006554	4.430000E-5	0.019370	5.296852E-5	4921.559357	178.999804	81.893908	196.843954	0.039996	0.457508	0.006554	0.009656
0.007373	4.487385E-5	0.021342	5.428416E-5	5422.723372	182.908205	87.392105	202.713570	0.037382	0.477792	0.007373	0.009781
0.008192	4.555201E-5	0.023515	5.571683E-5	5974.879631	186.999234	93.222421	208.947680	0.034971	0.498518	0.008192	0.009929
0.009011	4.627186E-5	0.025910	5.727776E-5	6583.203468	191.283157	99.404420	215.570139	0.032745	0.519672	0.009011	0.010086
0.009830	4.692751E-5	0.028548	5.897932E-5	7253.499342	195.770520	105.959172	222.606025	0.030689	0.541242	0.009830	0.010229
0.010650	4.757436E-5	0.031455	6.083437E-5	7992.120994	200.471530	112.908156	230.080607	0.028788	0.563213	0.010650	0.010370
0.011469	4.811170E-5	0.034658	6.285814E-5	8805.891695	205.398624	120.275366	238.022600	0.027030	0.585570	0.011469	0.010487
0.012288	4.871711E-5	0.038186	6.506632E-5	9702.511109	210.564248	128.086488	246.461865	0.025402	0.608301	0.012288	0.010619
0.013107	4.948598E-5	0.042075	6.747767E-5	10690.355011	215.983741	136.370940	255.432985	0.023894	0.631394	0.013107	0.010787
0.014746	5.043123E-5	0.046359	7.011125E-5	11778.973047	221.669304	145.157157	264.967697	0.022495	0.654837	0.014746	0.010993
0.016384	5.153260E-5	0.051079	7.298879E-5	12978.216932	227.638912	154.479064	275.105898	0.021198	0.678614	0.016384	0.011233
0.018022	5.269665E-5	0.056280	7.613566E-5	14299.690001	233.909048	164.372615	285.887739	0.019993	0.702720	0.018022	0.011487
0.019661	5.374327E-5	0.062010	7.957784E-5	15755.843650	240.496000	174.874368	297.353948	0.018873	0.727140	0.019661	0.011715
0.021299	5.479865E-5	0.068325	8.334620E-5	17360.060545	247.420364	186.026725	309.552546	0.017831	0.751865	0.021299	0.011945
0.022938	5.570666E-5	0.075282	8.747344E-5	19127.690571	254.701673	197.874452	322.532542	0.016862	0.776887	0.022938	0.012143
0.024576	5.670937E-5	0.082947	9.199632E-5	21075.284362	262.362738	210.467673	336.349294	0.015959	0.802201	0.024576	0.012361
0.026214	5.795777E-5	0.091393	9.695647E-5	23221.500771	270.422356	223.855412	351.054834	0.015118	0.827799	0.026214	0.012633
0.029491	5.953788E-5	0.100699	0.000102	25585.714362	278.908102	238.097854	366.715581	0.014333	0.853679	0.029491	0.012978
0.032768	6.142962E-5	0.110953	0.000108	28190.954727	287.842233	253.255443	383.394666	0.013600	0.879841	0.032768	0.013390
0.036045	6.352944E-5	0.122249	0.000115	31061.237325	297.253474	269.398191	401.167063	0.012915	0.906291	0.036045	0.013848
0.039322	6.553000E-5	0.134697	0.000122	34224.235775	307.166452	286.597641	420.106459	0.012275	0.933037	0.039322	0.014284
0.042598	6.755675E-5	0.148412	0.000130	37709.205724	317.608705	304.932362	440.294259	0.011676	0.960088	0.042598	0.014726
0.045875	6.920620E-5	0.163524	0.000139	41548.707001	328.608462	324.488455	461.818447	0.011115	0.987462	0.045875	0.015085
0.049152	7.105890E-5	0.180175	0.000148	45778.633823	340.200535	345.367991	484.783924	0.010590	1.015189	0.049152	0.015489
0.052429	7.341393E-5	0.198521	0.000159	50440.552385	352.408715	367.669233	509.286331	0.010097	1.043303	0.052429	0.016002
0.058982	7.643334E-5	0.218736	0.000171	55576.731524	365.263713	391.504969	535.437878	0.009634	1.071842	0.058982	0.016661
0.065536	8.015038E-5	0.241004	0.000184	61235.469141	378.795335	417.000167	563.360493	0.009200	1.100859	0.065536	0.017471
0.072090	8.430998E-5	0.265543	0.000198	67470.098994	393.034859	444.295380	593.190345	0.008792	1.130422	0.072090	0.018378
0.078643	8.825249E-5	0.292583	0.000214	74340.342211	408.004469	473.534478	625.062036	0.008408	1.160611	0.078643	0.019237
0.085197	9.241890E-5	0.322378	0.000231	81908.999648	423.735430	504.889922	659.140007	0.008047	1.191522	0.085197	0.020145
0.091750	9.592314E-5	0.355202	0.000250	90249.531693	440.247161	538.542285	695.589933	0.007707	1.223273	0.091750	0.020909
0.098304	9.976388E-5	0.391364	0.000271	99439.818392	457.551728	574.682723	734.584111	0.007387	1.255995	0.098304	0.021746
0.104858	0.000105	0.431218	0.000294	109563.474456	475.673523	613.550108	776.343375	0.007086	1.289855	0.104858	0.022816
0.117965	0.000111	0.475123	0.000320	120721.105241	494.603783	655.372759	821.064160	0.006801	1.325046	0.117965	0.024182
0.131072	0.000118	0.523504	0.000348	133011.890496	514.348582	700.434979	869.001509	0.006533	1.361790	0.131072	0.025732
0.144179	0.000126	0.576810	0.000379	146555.736337	534.887718	749.035929	920.412785	0.006280	1.400361	0.144179	0.027539
0.157286	0.000136	0.635539	0.000413	161478.869498	556.186875	801.503699	975.577788	0.006042	1.441069	0.157286	0.029624
0.170394	0.000143	0.700255	0.000450	177919.404387	578.206859	858.228106	1034.832669	0.005816	1.484293	0.170394	0.031132
0.183501	0.000151	0.771550	0.000491	196037.902920	600.862265	919.604341	1098.502438	0.005604	1.530474	0.183501	0.032897
0.399815	0.000278	0.850110	0.000536	215997.807244	624.063617	986.109218	1166.990483	0.005403	1.580142	0.399815	0.060607
0.599722	0.000391	0.936669	0.000584	237992.525958	647.665652	1058.241123	1240.703458	0.005213	1.633931	0.599722	0.085199
0.799629	0.000507	1.032039	0.000637	262222.840823	671.501581	1136.589564	1320.132649	0.005034	1.692609	0.799629	0.110512
0.999536	0.000622	1.137138	0.000694	288922.409742	695.342699	1221.800682	1405.808798	0.004866	1.757120	0.999536	0.135533
1.199440	0.000737	1.252920	0.000755	318343.501604	718.893465	1314.578969	1498.307605	0.004707	1.828614	1.199440	0.160644
1.399350	0.000851	1.380495	0.000821	350757.347979	741.794282	1415.731399	1598.297266	0.004557	1.908523	1.399350	0.185590
1.599260	0.000958	1.521041	0.000892	386468.071726	763.607566	1526.202021	1706.572332	0.004416	1.998673	1.599260	0.208763
1.799170	0.001052	1.675927	0.000967	425820.957836	783.774682	1647.025153	1824.005101	0.004284	2.101401	1.799170	0.229351
1.999070	0.001124	1.846579	0.001045	469177.802768	801.646510	1779.459609	1951.695065	0.004160	2.219756	1.999070	0.244953
2.198980	0.001182	2.034601	0.001128	516954.663450	816.430674	1924.985816	2090.963758	0.004045	2.357807	2.198980	0.257541
2.398890	0.001247	2.241762	0.001213	569593.277697	827.220840	2085.508246	2243.577269	0.003939	2.521102	2.398890	0.271720
2.598790	0.001323	2.470033	0.001301	627590.713430	832.973914	2263.553065	2411.953155	0.003843	2.717436	2.598790	0.288304
2.798700	0.001415	2.721523	0.001390	691483.980145	832.547684	2462.807406	2599.722287	0.003760	2.958158	2.798700	0.308456
