MicroRheology Analysis v9.2.8
10/11/18 8:10:38 PM

Correlation Mode:	Cross
Geometry:	Transmission
Multi-Tau Duration (s):	120
Echo Duration (s):	60
Wavelength (nm):	685.0
Temperature (°C):	35.01
Cuvette Thickness (mm):	10.00
Absorption Length (mm):	Inf
Solvent:	Water
Solvent Refractive Index:	1.329
Particle Radius (nm):	300.0
Mean Count Rate (kHz):	123.5
l* (microns):	813.56



Lag Time (s)	Mean Square Displacement (micron^2)	Fit Lag Time (s)	Mean Square Displacement Fit (micron^2)	Frequency(rad/s)	G1 (Pa)	G2 (Pa)	G* (Pa)	Complex Viscosity (Pa s)	Loss Tangent (-)	Time (s)	Creep Compliance (1/Pa)

2.812500E-6	1.395769E-6	2.812520E-6	1.481229E-6	0.714615	-1.130722	6.667453	6.762652	9.463346	-5.896633	2.812500E-6	0.000309
3.012500E-6	1.519204E-6	3.101762E-6	1.616547E-6	0.788109	-1.283462	7.433357	7.543346	9.571448	-5.791647	3.012500E-6	0.000337
3.212500E-6	1.659795E-6	3.420751E-6	1.758577E-6	0.869149	-1.425765	8.301601	8.423146	9.691251	-5.822557	3.212500E-6	0.000368
3.612500E-6	1.817566E-6	3.772591E-6	1.907285E-6	0.958549	-1.551158	9.283489	9.412187	9.819198	-5.984877	3.612500E-6	0.000403
4.012500E-6	2.154011E-6	4.160520E-6	2.062553E-6	1.057126	-1.651636	10.391304	10.521744	9.953155	-6.291521	4.012500E-6	0.000477
4.412500E-6	2.280190E-6	4.588443E-6	2.224377E-6	1.165835	-1.717376	11.637751	11.763784	10.090434	-6.776472	4.412500E-6	0.000505
4.812500E-6	2.312680E-6	5.060307E-6	2.392609E-6	1.285737	-1.736492	13.035220	13.150376	10.227890	-7.506639	4.812500E-6	0.000512
5.212500E-6	2.423525E-6	5.580759E-6	2.567196E-6	1.417957	-1.695005	14.596355	14.694442	10.363110	-8.611394	5.212500E-6	0.000537
5.612500E-6	2.595333E-6	6.154688E-6	2.747995E-6	1.563784	-1.576593	16.333216	16.409131	10.493221	-10.359817	5.612500E-6	0.000575
6.012500E-6	2.834291E-6	6.787638E-6	2.934905E-6	1.724633	-1.362581	18.256291	18.307069	10.615055	-13.398320	6.012500E-6	0.000628
6.412500E-6	2.952209E-6	7.485683E-6	3.127800E-6	1.901999	-1.032040	20.375223	20.401343	10.726264	-19.742659	6.412500E-6	0.000654
7.212500E-6	3.091806E-6	8.255541E-6	3.326553E-6	2.097592	-0.561686	22.698022	22.704971	10.824305	-40.410524	7.212500E-6	0.000685
8.012500E-6	3.262370E-6	9.104629E-6	3.531028E-6	2.313317	0.073870	25.229762	25.229871	10.906363	341.545039	8.012500E-6	0.000723
8.812500E-6	3.507827E-6	1.004097E-5	3.741045E-6	2.551218	0.901779	27.972961	27.987492	10.970249	31.019749	8.812500E-6	0.000777
9.612500E-6	3.658822E-6	1.107363E-5	3.956463E-6	2.813584	1.950677	30.926675	30.988133	11.013756	15.854329	9.612500E-6	0.000811
1.041250E-5	3.840137E-6	1.221250E-5	4.177110E-6	3.102933	3.250284	34.086678	34.241290	11.035138	10.487292	1.041250E-5	0.000851
1.121250E-5	3.960869E-6	1.346837E-5	4.402783E-6	3.422097	4.830301	37.442722	37.753003	11.032126	7.751634	1.121250E-5	0.000877
1.201250E-5	4.153178E-6	1.485356E-5	4.633340E-6	3.774001	6.720315	40.982300	41.529647	11.004142	6.098271	1.201250E-5	0.000920
1.281250E-5	4.315564E-6	1.638104E-5	4.868528E-6	4.162126	8.949117	44.687428	45.574696	10.949861	4.993501	1.281250E-5	0.000956
1.441250E-5	4.451495E-6	1.806578E-5	5.108186E-6	4.590218	11.542940	48.534268	49.888021	10.868334	4.204671	1.441250E-5	0.000986
1.601250E-5	4.581489E-6	1.992378E-5	5.352065E-6	5.062269	14.525449	52.495728	54.468249	10.759651	3.614052	1.601250E-5	0.001015
1.761250E-5	4.788414E-6	2.197274E-5	5.599916E-6	5.582841	17.917243	56.540624	59.311632	10.623916	3.155654	1.761250E-5	0.001061
1.921250E-5	4.988957E-6	2.423250E-5	5.851519E-6	6.157008	21.734233	60.633040	64.410732	10.461369	2.789748	1.921250E-5	0.001105
2.081250E-5	5.223347E-6	2.672452E-5	6.106590E-6	6.790255	25.986843	64.733650	69.755011	10.272812	2.491016	2.081250E-5	0.001157
2.241250E-5	5.479017E-6	2.947319E-5	6.364906E-6	7.488594	30.679655	68.800684	75.331104	10.059445	2.242551	2.241250E-5	0.001214
2.401250E-5	5.704855E-6	3.250404E-5	6.626106E-6	8.258648	35.812709	72.792703	81.125382	9.823083	2.032594	2.401250E-5	0.001264
2.561250E-5	5.995947E-6	3.584665E-5	6.889947E-6	9.108102	41.377211	76.663597	87.117052	9.564787	1.852798	2.561250E-5	0.001328
2.881250E-5	6.304241E-6	3.953336E-5	7.156140E-6	10.044697	47.360063	80.372042	93.287945	9.287284	1.697043	2.881250E-5	0.001397
3.201250E-5	6.588288E-6	4.359916E-5	7.424340E-6	11.077810	53.740530	83.874667	99.614278	8.992236	1.560734	3.201250E-5	0.001459
3.521250E-5	6.822432E-6	4.808283E-5	7.694210E-6	12.217164	60.491114	87.131502	106.071078	8.682136	1.440402	3.521250E-5	0.001511
3.841250E-5	7.017107E-6	5.302795E-5	7.965447E-6	13.473567	67.580045	90.106898	112.633546	8.359594	1.333336	3.841250E-5	0.001554
4.161250E-5	7.238795E-6	5.848165E-5	8.237693E-6	14.859261	74.969259	92.767825	119.273883	8.026905	1.237412	4.161250E-5	0.001604
4.481250E-5	7.487747E-6	6.449603E-5	8.510587E-6	16.387299	82.617853	95.087946	125.965976	7.686805	1.150937	4.481250E-5	0.001659
4.801250E-5	7.749949E-6	7.112936E-5	8.783804E-6	18.072618	90.481023	97.045122	132.682219	7.341616	1.072547	4.801250E-5	0.001717
5.121250E-5	8.012311E-6	7.844372E-5	9.056929E-6	19.931370	98.510931	98.623324	139.394991	6.993748	1.001141	5.121250E-5	0.001775
5.761250E-5	8.292305E-6	8.651191E-5	9.329701E-6	21.981258	106.657592	99.812597	146.076680	6.645510	0.935823	5.761250E-5	0.001837
6.401250E-5	8.597635E-6	9.540955E-5	9.601702E-6	24.241507	114.874075	100.611045	152.704406	6.299295	0.875838	6.401250E-5	0.001905
7.041250E-5	8.897930E-6	0.000105	9.872535E-6	26.734594	123.112037	101.020488	159.253611	5.956837	0.820557	7.041250E-5	0.001971
7.681250E-5	9.162501E-6	0.000116	1.014197E-5	29.484219	131.323984	101.049619	165.701582	5.620009	0.769468	7.681250E-5	0.002030
8.321250E-5	9.395835E-6	0.000128	1.040961E-5	32.516439	139.466379	100.713151	172.029096	5.290527	0.722132	8.321250E-5	0.002081
8.961250E-5	9.542249E-6	0.000141	1.067511E-5	35.860622	147.497672	100.029885	178.217679	4.969732	0.678179	8.961250E-5	0.002114
9.601250E-5	9.736263E-6	0.000156	1.093823E-5	39.548332	155.382865	99.024184	184.254236	4.658964	0.637292	9.601250E-5	0.002157
0.000102	9.972368E-6	0.000172	1.119860E-5	43.616121	163.087699	97.722202	190.124239	4.359036	0.599200	0.000102	0.002209
0.000115	1.024708E-5	0.000189	1.145603E-5	48.101734	170.584363	96.155058	195.818334	4.070921	0.563680	0.000115	0.002270
0.000128	1.053668E-5	0.000209	1.171021E-5	53.048342	177.851268	94.355282	201.330556	3.795228	0.530529	0.000128	0.002334
0.000141	1.081852E-5	0.000230	1.196096E-5	58.504370	184.869123	92.356355	206.655000	3.532300	0.499577	0.000141	0.002397
0.000154	1.104451E-5	0.000254	1.220808E-5	64.520823	191.625690	90.193862	211.790788	3.282518	0.470677	0.000154	0.002447
0.000166	1.124934E-5	0.000280	1.245138E-5	71.156342	198.112335	87.902588	216.738004	3.045941	0.443701	0.000166	0.002492
0.000179	1.142548E-5	0.000309	1.269080E-5	78.474003	204.326270	85.517602	221.500530	2.822598	0.418535	0.000179	0.002531
0.000192	1.161596E-5	0.000341	1.292620E-5	86.545425	210.266209	83.072607	226.081703	2.612289	0.395083	0.000192	0.002573
0.000205	1.182181E-5	0.000376	1.315760E-5	95.445352	215.937967	80.601119	230.490229	2.414892	0.373261	0.000205	0.002619
0.000230	1.204643E-5	0.000414	1.338492E-5	105.261937	221.348176	78.133827	234.733700	2.229996	0.352991	0.000230	0.002669
0.000256	1.228876E-5	0.000457	1.360824E-5	116.087090	226.507735	75.700701	238.822843	2.057273	0.334208	0.000256	0.002722
0.000282	1.251948E-5	0.000504	1.382765E-5	128.025150	231.430289	73.329086	242.769713	1.896266	0.316852	0.000282	0.002773
0.000307	1.271170E-5	0.000556	1.404330E-5	141.191536	236.131067	71.044273	246.587043	1.746472	0.300868	0.000307	0.002816
0.000333	1.288397E-5	0.000613	1.425535E-5	155.712244	240.627374	68.869571	250.288935	1.607381	0.286208	0.000333	0.002854
0.000358	1.302735E-5	0.000676	1.446405E-5	171.727559	244.936290	66.826136	253.888792	1.478439	0.272831	0.000358	0.002886
0.000384	1.318486E-5	0.000745	1.466969E-5	189.385852	249.079262	64.933239	257.403971	1.359151	0.260693	0.000384	0.002921
0.000410	1.337183E-5	0.000822	1.487263E-5	208.865529	253.074715	63.207322	260.848571	1.248883	0.249758	0.000410	0.002962
0.000461	1.357471E-5	0.000907	1.507328E-5	230.345936	256.943101	61.664029	264.238926	1.147140	0.239991	0.000461	0.003007
0.000512	1.378443E-5	0.001000	1.527210E-5	254.033310	260.705525	60.316584	267.591967	1.053374	0.231359	0.000512	0.003054
0.000563	1.397715E-5	0.001103	1.546959E-5	280.158616	264.382440	59.176581	270.924237	0.967039	0.223829	0.000563	0.003096
0.000614	1.414049E-5	0.001216	1.566633E-5	308.973781	267.992836	58.254382	274.251223	0.887620	0.217373	0.000614	0.003132
0.000666	1.428458E-5	0.001341	1.586297E-5	340.746471	271.557546	57.559277	277.590654	0.814655	0.211960	0.000666	0.003164
0.000717	1.441152E-5	0.001479	1.606021E-5	375.791942	275.094775	57.098999	280.958059	0.747643	0.207561	0.000717	0.003192
0.000768	1.454605E-5	0.001631	1.625884E-5	414.437474	278.623619	56.880826	284.370444	0.686160	0.204149	0.000768	0.003222
0.000819	1.471105E-5	0.001799	1.645966E-5	457.060330	282.161841	56.911032	287.844003	0.629772	0.201696	0.000819	0.003259
0.000922	1.490312E-5	0.001984	1.666354E-5	504.069138	285.725782	57.195317	291.394109	0.578084	0.200176	0.000922	0.003301
0.001024	1.512754E-5	0.002188	1.687152E-5	555.903209	289.332971	57.739226	295.037940	0.530736	0.199560	0.001024	0.003351
0.001126	1.533548E-5	0.002413	1.708460E-5	613.075488	292.998901	58.547802	298.791234	0.487365	0.199823	0.001126	0.003397
0.001229	1.552034E-5	0.002661	1.730388E-5	676.131409	296.738033	59.625906	302.669307	0.447649	0.200938	0.001229	0.003438
0.001331	1.568534E-5	0.002935	1.753060E-5	745.663993	300.565266	60.978562	306.688545	0.411296	0.202880	0.001331	0.003475
0.001434	1.582573E-5	0.003237	1.776599E-5	822.347049	304.494624	62.610936	310.865091	0.378022	0.205622	0.001434	0.003506
0.001536	1.598410E-5	0.003569	1.801149E-5	906.918757	308.539446	64.528411	315.215015	0.347567	0.209142	0.001536	0.003541
0.001638	1.618010E-5	0.003936	1.826851E-5	1000.189538	312.712798	66.736787	319.754739	0.319694	0.213412	0.001638	0.003584
0.001843	1.639436E-5	0.004341	1.853862E-5	1103.057757	317.026735	69.242130	324.500267	0.294182	0.218411	0.001843	0.003632
0.002048	1.663942E-5	0.004788	1.882355E-5	1216.497094	321.493889	72.051310	329.468833	0.270834	0.224114	0.002048	0.003686
0.002253	1.688113E-5	0.005280	1.912514E-5	1341.605684	326.125703	75.171669	334.677089	0.249460	0.230499	0.002253	0.003739
0.002458	1.709300E-5	0.005823	1.944519E-5	1479.566750	330.934923	78.611821	340.143707	0.229894	0.237545	0.002458	0.003786
0.002662	1.730495E-5	0.006422	1.978597E-5	1631.732160	335.932630	82.380957	345.886331	0.211975	0.245231	0.002662	0.003833
0.002867	1.748797E-5	0.007083	2.014964E-5	1799.542973	341.130839	86.489363	351.924223	0.195563	0.253537	0.002867	0.003874
0.003072	1.767458E-5	0.007811	2.053866E-5	1984.620437	346.540758	90.948282	358.276551	0.180526	0.262446	0.003072	0.003915
0.003277	1.789422E-5	0.008614	2.095565E-5	2188.721777	352.174509	95.770407	364.964184	0.166748	0.271940	0.003277	0.003964
0.003686	1.814999E-5	0.009500	2.140351E-5	2413.815265	358.043871	100.969802	372.008487	0.154116	0.282004	0.003686	0.004021
0.004096	1.843153E-5	0.010477	2.188540E-5	2662.052400	364.162109	106.562695	379.433327	0.142534	0.292624	0.004096	0.004083
0.004506	1.871594E-5	0.011555	2.240461E-5	2935.863748	370.539702	112.565603	387.260488	0.131907	0.303788	0.004506	0.004146
0.004915	1.895429E-5	0.012743	2.296501E-5	3237.789285	377.190733	118.997834	395.516541	0.122156	0.315485	0.004915	0.004199
0.005325	1.917928E-5	0.014054	2.357049E-5	3570.778212	384.127465	125.880489	404.227420	0.113204	0.327705	0.005325	0.004249
0.005734	1.937777E-5	0.015499	2.422562E-5	3937.982803	391.364738	133.237634	413.423058	0.104983	0.340444	0.005734	0.004293
0.006144	1.961293E-5	0.017093	2.493526E-5	4342.990548	398.915782	141.095263	423.133164	0.097429	0.353697	0.006144	0.004345
0.006554	1.991835E-5	0.018851	2.570492E-5	4789.654388	406.794323	149.481388	433.389325	0.090484	0.367462	0.006554	0.004412
0.007373	2.029743E-5	0.020789	2.654040E-5	5282.212162	415.016830	158.428603	444.228085	0.084099	0.381740	0.007373	0.004496
0.008192	2.073130E-5	0.022927	2.744847E-5	5825.481275	423.596439	167.971014	455.684326	0.078223	0.396535	0.008192	0.004592
0.009011	2.119182E-5	0.025286	2.843652E-5	6424.539784	432.551978	178.148849	467.801482	0.072815	0.411855	0.009011	0.004694
0.009830	2.162346E-5	0.027886	2.951236E-5	7085.326270	441.895817	189.003234	480.618492	0.067833	0.427710	0.009830	0.004790
0.010650	2.204447E-5	0.030754	3.068539E-5	7813.932427	451.647982	200.582791	494.185548	0.063244	0.444113	0.010650	0.004883
0.011469	2.241538E-5	0.033916	3.196554E-5	8617.571632	461.823873	212.940085	508.551639	0.059013	0.461085	0.011469	0.004965
0.012288	2.284213E-5	0.037405	3.336421E-5	9503.882289	472.437835	226.130408	523.767572	0.055111	0.478646	0.012288	0.005060
0.013107	2.335687E-5	0.041252	3.489385E-5	10481.130924	483.512081	240.220952	539.898174	0.051511	0.496825	0.013107	0.005174
0.014746	2.396343E-5	0.045493	3.656837E-5	11559.102587	495.060908	255.282594	557.004942	0.048188	0.515659	0.014746	0.005308
0.016384	2.466329E-5	0.050172	3.840420E-5	12747.992979	507.097752	271.390343	575.152892	0.045117	0.535183	0.016384	0.005463
0.018022	2.544046E-5	0.055332	4.041884E-5	14058.892332	519.643508	288.634256	594.423342	0.042281	0.555447	0.018022	0.005636
0.019661	2.618376E-5	0.061023	4.263211E-5	15504.829223	532.709148	307.109357	614.894457	0.039658	0.576505	0.019661	0.005800
0.021299	2.693287E-5	0.067298	4.506640E-5	17099.379885	546.309581	326.922728	636.657387	0.037233	0.598420	0.021299	0.005966
0.022938	2.758871E-5	0.074219	4.774751E-5	18857.980899	560.455065	348.192657	659.809068	0.034988	0.621268	0.022938	0.006111
0.024576	2.831018E-5	0.081852	5.070361E-5	20797.444843	575.152696	371.049102	684.454571	0.032911	0.645131	0.024576	0.006271
0.026214	2.919544E-5	0.090271	5.396746E-5	22936.222312	590.409409	395.639757	710.713788	0.030987	0.670111	0.026214	0.006467
0.029491	3.029028E-5	0.099555	5.757529E-5	25295.092557	606.224017	422.126648	738.714062	0.029204	0.696321	0.029491	0.006710
0.032768	3.157756E-5	0.109792	6.156750E-5	27896.610716	622.588272	450.687065	768.592862	0.027551	0.723893	0.032768	0.006995
0.036045	3.292985E-5	0.121085	6.599248E-5	30765.409376	639.490116	481.521518	800.506452	0.026020	0.752977	0.036045	0.007295
0.039322	3.421838E-5	0.133536	7.090091E-5	33929.136869	656.910571	514.858010	834.631817	0.024599	0.783757	0.039322	0.007580
0.042598	3.552306E-5	0.147270	7.635436E-5	37418.820934	674.807243	550.937149	871.146691	0.023281	0.816436	0.042598	0.007869
0.045875	3.668183E-5	0.162417	8.242030E-5	41266.897576	693.136537	590.037097	910.264816	0.022058	0.851257	0.045875	0.008126
0.049152	3.800423E-5	0.179120	8.917492E-5	45510.946860	711.828011	632.461821	952.211674	0.020923	0.888504	0.049152	0.008419
0.052429	3.971090E-5	0.197540	9.670465E-5	50191.281386	730.795659	678.553958	997.245090	0.019869	0.928514	0.052429	0.008797
0.058982	4.184305E-5	0.217855	0.000105	55353.270474	749.921328	728.689861	1045.643779	0.018890	0.971688	0.058982	0.009269
0.065536	4.441028E-5	0.240262	0.000115	61046.177279	769.053468	783.283016	1097.713769	0.017982	1.018503	0.065536	0.009838
0.072090	4.714182E-5	0.264971	0.000125	67323.917119	788.010279	842.806741	1153.812550	0.017138	1.069538	0.072090	0.010443
0.078643	4.966836E-5	0.292219	0.000137	74248.021376	806.545508	907.765991	1214.312460	0.016355	1.125499	0.078643	0.011003
0.085197	5.216010E-5	0.322276	0.000150	81883.320383	824.371769	978.739399	1279.656057	0.015628	1.187255	0.085197	0.011554
0.091750	5.437771E-5	0.355419	0.000165	90304.654333	841.115372	1056.351383	1350.316005	0.014953	1.255894	0.091750	0.012046
0.098304	5.691732E-5	0.391970	0.000181	99591.973186	856.323604	1141.291948	1426.827749	0.014327	1.332781	0.098304	0.012608
0.104858	6.018598E-5	0.432280	0.000200	109834.235811	869.442675	1234.329524	1509.801291	0.013746	1.419679	0.104858	0.013332
0.117965	6.426371E-5	0.476737	0.000221	121130.762422	879.784831	1336.288062	1599.902226	0.013208	1.518881	0.117965	0.014236
0.131072	6.869242E-5	0.525763	0.000244	133588.336917	886.524918	1448.080907	1697.900098	0.012710	1.633435	0.131072	0.015217
0.144179	7.372796E-5	0.579834	0.000271	147326.658725	888.659194	1570.711657	1804.674561	0.012249	1.767507	0.144179	0.016332
0.157286	7.941805E-5	0.639475	0.000300	162477.781202	884.976454	1705.283596	1921.243209	0.011825	1.926925	0.157286	0.017593
0.170394	8.338039E-5	0.705240	0.000334	179187.098408	874.026096	1853.038380	2048.822309	0.011434	2.120118	0.170394	0.018470
0.183501	8.793378E-5	0.777764	0.000371	197616.482637	854.065542	2015.354408	2188.853887	0.011076	2.359719	0.183501	0.019479
0.399815	0.000189	0.857754	0.000413	217938.829820	823.048565	2193.955776	2343.256471	0.010752	2.665646	0.399815	0.041901
0.599722	0.000288	0.945961	0.000460	240354.545010	778.512906	2390.940110	2514.493379	0.010462	3.071163	0.599722	0.063818
0.799630	0.000388	1.043243	0.000512	265069.806425	717.567639	2609.419525	2706.284089	0.010210	3.636479	0.799630	0.085998
0.999537	0.000498	1.150550	0.000571	292333.430046	636.630600	2853.937119	2924.082009	0.010003	4.482878	0.999537	0.110411
1.199440	0.000586	1.268860	0.000636	322397.385772	531.185309	3132.010382	3176.735253	0.009853	5.896267	1.199440	0.129879
